%OpenBCI Raw EEG Data
%Number of channels = 8
%Sample Rate = 250.0 Hz
%First Column = SampleIndex
%Last Column = Timestamp 
%Other Columns = EEG data in microvolts followed by Accel Data (in G) interleaved with Aux Data
0, 0.00, 0.00, 0.00, 0.00, 0.00, 0.00, 0.00, 0.00, 0.000, 0.000, 0.000, 19:38:09.083, 1565912289083
1, 0.00, 0.00, -9531.63, -27855.35, 3802.32, 0.00, 0.00, 0.00, 0.006, 0.016, 0.970, 19:38:09.095, 1565912289095
2, 0.00, 0.00, -9566.03, -27863.04, 3801.88, 0.00, 0.00, 0.00, 0.000, 0.000, 0.000, 19:38:09.102, 1565912289102
3, 0.00, 0.00, -9688.39, -27876.07, 3790.41, 0.00, 0.00, 0.00, 0.000, 0.000, 0.000, 19:38:09.103, 1565912289103
4, 0.00, 0.00, -9674.75, -27873.38, 3791.10, 0.00, 0.00, 0.00, 0.000, 0.000, 0.000, 19:38:09.109, 1565912289109
5, 0.00, 0.00, -9541.76, -27860.80, 3802.19, 0.00, 0.00, 0.00, 0.000, 0.000, 0.000, 19:38:09.110, 1565912289110
6, 0.00, 0.00, -9544.95, -27855.44, 3809.94, 0.00, 0.00, 0.00, 0.000, 0.000, 0.000, 19:38:09.117, 1565912289117
7, 0.00, 0.00, -9651.04, -27859.04, 3807.95, 0.00, 0.00, 0.00, 0.000, 0.000, 0.000, 19:38:09.117, 1565912289117
8, 0.00, 0.00, -9690.00, -27865.61, 3797.40, 0.00, 0.00, 0.00, 0.010, 0.016, 0.972, 19:38:09.124, 1565912289124
9, 0.00, 0.00, -9553.29, -27851.88, 3810.17, 0.00, 0.00, 0.00, 0.000, 0.000, 0.000, 19:38:09.125, 1565912289125
10, 0.00, 0.00, -9532.35, -27852.26, 3813.45, 0.00, 0.00, 0.00, 0.000, 0.000, 0.000, 19:38:09.132, 1565912289132
11, 0.00, 0.00, -9632.19, -27863.21, 3803.84, 0.00, 0.00, 0.00, 0.000, 0.000, 0.000, 19:38:09.133, 1565912289133
12, 0.00, 0.00, -9702.67, -27868.18, 3795.37, 0.00, 0.00, 0.00, 0.000, 0.000, 0.000, 19:38:09.140, 1565912289140
13, 0.00, 0.00, -9575.00, -27856.24, 3801.83, 0.00, 0.00, 0.00, 0.000, 0.000, 0.000, 19:38:09.140, 1565912289140
14, 0.00, 0.00, -9519.07, -27852.53, 3808.22, 0.00, 0.00, 0.00, 0.000, 0.000, 0.000, 19:38:09.147, 1565912289147
15, 0.00, 0.00, -9608.14, -27862.39, 3802.77, 0.00, 0.00, 0.00, 0.000, 0.000, 0.000, 19:38:09.147, 1565912289147
16, 0.00, 0.00, -9705.10, -27866.84, 3798.03, 0.00, 0.00, 0.00, 0.000, 0.000, 0.000, 19:38:09.154, 1565912289154
17, 0.00, 0.00, -9595.94, -27852.53, 3807.49, 0.00, 0.00, 0.00, 0.006, 0.012, 0.972, 19:38:09.162, 1565912289162
18, 0.00, 0.00, -9511.58, -27845.22, 3814.50, 0.00, 0.00, 0.00, 0.000, 0.000, 0.000, 19:38:09.162, 1565912289162
19, 0.00, 0.00, -9581.43, -27855.82, 3807.64, 0.00, 0.00, 0.00, 0.000, 0.000, 0.000, 19:38:09.170, 1565912289170
20, 0.00, 0.00, -9699.83, -27870.59, 3792.38, 0.00, 0.00, 0.00, 0.000, 0.000, 0.000, 19:38:09.170, 1565912289170
21, 0.00, 0.00, -9628.28, -27863.77, 3794.07, 0.00, 0.00, 0.00, 0.000, 0.000, 0.000, 19:38:09.176, 1565912289176
22, 0.00, 0.00, -9516.79, -27848.53, 3809.05, 0.00, 0.00, 0.00, 0.000, 0.000, 0.000, 19:38:09.176, 1565912289176
23, 0.00, 0.00, -9554.39, -27848.42, 3813.34, 0.00, 0.00, 0.00, 0.000, 0.000, 0.000, 19:38:09.184, 1565912289184
24, 0.00, 0.00, -9680.94, -27863.10, 3802.68, 0.00, 0.00, 0.00, 0.000, 0.000, 0.000, 19:38:09.185, 1565912289185
25, 0.00, 0.00, -9652.53, -27866.12, 3796.47, 0.00, 0.00, 0.00, 0.000, 0.000, 0.000, 19:38:09.192, 1565912289192
26, 0.00, 0.00, -9524.17, -27852.49, 3809.77, 0.00, 0.00, 0.00, 0.000, 0.000, 0.000, 19:38:09.193, 1565912289193
27, 0.00, 0.00, -9546.94, -27858.70, 3807.53, 0.00, 0.00, 0.00, 0.008, 0.014, 0.970, 19:38:09.200, 1565912289200
28, 0.00, 0.00, -9672.43, -27872.54, 3798.90, 0.00, 0.00, 0.00, 0.000, 0.000, 0.000, 19:38:09.200, 1565912289200
29, 0.00, 0.00, -9676.65, -27869.14, 3797.47, 0.00, 0.00, 0.00, 0.000, 0.000, 0.000, 19:38:09.207, 1565912289207
30, 0.00, 0.00, -9538.29, -27852.13, 3807.75, 0.00, 0.00, 0.00, 0.000, 0.000, 0.000, 19:38:09.207, 1565912289207
31, 0.00, 0.00, -9538.70, -27856.06, 3806.48, 0.00, 0.00, 0.00, 0.000, 0.000, 0.000, 19:38:09.214, 1565912289214
32, 0.00, 0.00, -9650.41, -27871.37, 3796.11, 0.00, 0.00, 0.00, 0.000, 0.000, 0.000, 19:38:09.222, 1565912289222
33, 0.00, 0.00, -9697.13, -27871.71, 3794.52, 0.00, 0.00, 0.00, 0.000, 0.000, 0.000, 19:38:09.222, 1565912289222
34, 0.00, 0.00, -9559.44, -27857.58, 3804.33, 0.00, 0.00, 0.00, 0.000, 0.000, 0.000, 19:38:09.229, 1565912289229
35, 0.00, 0.00, -9523.94, -27849.85, 3816.25, 0.00, 0.00, 0.00, 0.000, 0.000, 0.000, 19:38:09.229, 1565912289229
36, 0.00, 0.00, -9621.22, -27860.87, 3808.71, 0.00, 0.00, 0.00, 0.000, 0.000, 0.000, 19:38:09.237, 1565912289237
37, 0.00, 0.00, -9701.15, -27866.97, 3801.79, 0.00, 0.00, 0.00, 0.006, 0.016, 0.970, 19:38:09.237, 1565912289237
38, 0.00, 0.00, -9572.89, -27847.95, 3816.81, 0.00, 0.00, 0.00, 0.000, 0.000, 0.000, 19:38:09.244, 1565912289244
39, 0.00, 0.00, -9517.93, -27847.32, 3819.60, 0.00, 0.00, 0.00, 0.000, 0.000, 0.000, 19:38:09.245, 1565912289245
40, 0.00, 0.00, -9600.83, -27859.48, 3809.07, 0.00, 0.00, 0.00, 0.000, 0.000, 0.000, 19:38:09.252, 1565912289252
41, 0.00, 0.00, -9706.25, -27871.28, 3796.71, 0.00, 0.00, 0.00, 0.000, 0.000, 0.000, 19:38:09.252, 1565912289252
42, 0.00, 0.00, -9604.75, -27853.76, 3810.06, 0.00, 0.00, 0.00, 0.000, 0.000, 0.000, 19:38:09.259, 1565912289259
43, 0.00, 0.00, -9517.75, -27846.67, 3816.85, 0.00, 0.00, 0.00, 0.000, 0.000, 0.000, 19:38:09.259, 1565912289259
44, 0.00, 0.00, -9583.78, -27862.14, 3803.42, 0.00, 0.00, 0.00, 0.000, 0.000, 0.000, 19:38:09.267, 1565912289267
45, 0.00, 0.00, -9701.95, -27873.79, 3790.36, 0.00, 0.00, 0.00, 0.000, 0.000, 0.000, 19:38:09.267, 1565912289267
46, 0.00, 0.00, -9642.41, -27866.90, 3792.33, 0.00, 0.00, 0.00, 0.000, 0.000, 0.000, 19:38:09.274, 1565912289274
47, 0.00, 0.00, -9526.18, -27850.32, 3809.14, 0.00, 0.00, 0.00, 0.008, 0.018, 0.970, 19:38:09.281, 1565912289281
48, 0.00, 0.00, -9559.73, -27851.26, 3809.05, 0.00, 0.00, 0.00, 0.000, 0.000, 0.000, 19:38:09.281, 1565912289281
49, 0.00, 0.00, -9684.83, -27864.82, 3795.77, 0.00, 0.00, 0.00, 0.000, 0.000, 0.000, 19:38:09.290, 1565912289290
50, 0.00, 0.00, -9660.40, -27859.24, 3797.56, 0.00, 0.00, 0.00, 0.000, 0.000, 0.000, 19:38:09.290, 1565912289290
51, 0.00, 0.00, -9524.21, -27843.95, 3814.57, 0.00, 0.00, 0.00, 0.000, 0.000, 0.000, 19:38:09.297, 1565912289297
52, 0.00, 0.00, -9536.75, -27846.83, 3818.71, 0.00, 0.00, 0.00, 0.000, 0.000, 0.000, 19:38:09.297, 1565912289297
53, 0.00, 0.00, -9657.90, -27863.06, 3805.41, 0.00, 0.00, 0.00, 0.000, 0.000, 0.000, 19:38:09.305, 1565912289305
54, 0.00, 0.00, -9678.35, -27862.50, 3804.29, 0.00, 0.00, 0.00, 0.000, 0.000, 0.000, 19:38:09.305, 1565912289305
55, 0.00, 0.00, -9544.46, -27849.98, 3815.53, 0.00, 0.00, 0.00, 0.000, 0.000, 0.000, 19:38:09.312, 1565912289312
56, 0.00, 0.00, -9534.83, -27850.25, 3819.18, 0.00, 0.00, 0.00, 0.000, 0.000, 0.000, 19:38:09.312, 1565912289312
57, 0.00, 0.00, -9637.60, -27858.12, 3813.23, 0.00, 0.00, 0.00, 0.006, 0.016, 0.968, 19:38:09.320, 1565912289320
58, 0.00, 0.00, -9698.31, -27863.68, 3805.99, 0.00, 0.00, 0.00, 0.000, 0.000, 0.000, 19:38:09.320, 1565912289320
59, 0.00, 0.00, -9561.16, -27853.58, 3814.53, 0.00, 0.00, 0.00, 0.000, 0.000, 0.000, 19:38:09.327, 1565912289327
60, 0.00, 0.00, -9514.40, -27844.51, 3824.58, 0.00, 0.00, 0.00, 0.000, 0.000, 0.000, 19:38:09.328, 1565912289328
61, 0.00, 0.00, -9614.51, -27850.88, 3818.91, 0.00, 0.00, 0.00, 0.000, 0.000, 0.000, 19:38:09.335, 1565912289335
62, 0.00, 0.00, -9710.74, -27856.38, 3812.78, 0.00, 0.00, 0.00, 0.000, 0.000, 0.000, 19:38:09.335, 1565912289335
63, 0.00, 0.00, -9580.72, -27846.18, 3815.13, 0.00, 0.00, 0.00, 0.000, 0.000, 0.000, 19:38:09.342, 1565912289342
64, 0.00, 0.00, -9506.13, -27844.13, 3815.78, 0.00, 0.00, 0.00, 0.000, 0.000, 0.000, 19:38:09.349, 1565912289349
65, 0.00, 0.00, -9589.48, -27850.81, 3814.44, 0.00, 0.00, 0.00, 0.000, 0.000, 0.000, 19:38:09.349, 1565912289349
66, 0.00, 0.00, -9708.17, -27857.56, 3808.76, 0.00, 0.00, 0.00, 0.000, 0.000, 0.000, 19:38:09.357, 1565912289357
67, 0.00, 0.00, -9611.74, -27855.82, 3803.17, 0.00, 0.00, 0.00, 0.008, 0.018, 0.970, 19:38:09.357, 1565912289357
68, 0.00, 0.00, -9510.78, -27849.40, 3810.93, 0.00, 0.00, 0.00, 0.000, 0.000, 0.000, 19:38:09.364, 1565912289364
69, 0.00, 0.00, -9572.38, -27854.77, 3811.62, 0.00, 0.00, 0.00, 0.000, 0.000, 0.000, 19:38:09.364, 1565912289364
70, 0.00, 0.00, -9699.25, -27859.41, 3807.53, 0.00, 0.00, 0.00, 0.000, 0.000, 0.000, 19:38:09.372, 1565912289372
71, 0.00, 0.00, -9634.99, -27844.39, 3816.34, 0.00, 0.00, 0.00, 0.000, 0.000, 0.000, 19:38:09.372, 1565912289372
72, 0.00, 0.00, -9504.03, -27837.09, 3824.83, 0.00, 0.00, 0.00, 0.000, 0.000, 0.000, 19:38:09.380, 1565912289380
73, 0.00, 0.00, -9543.12, -27842.81, 3824.99, 0.00, 0.00, 0.00, 0.000, 0.000, 0.000, 19:38:09.380, 1565912289380
74, 0.00, 0.00, -9675.78, -27851.19, 3818.62, 0.00, 0.00, 0.00, 0.000, 0.000, 0.000, 19:38:09.388, 1565912289388
75, 0.00, 0.00, -9660.45, -27848.37, 3817.92, 0.00, 0.00, 0.00, 0.000, 0.000, 0.000, 19:38:09.388, 1565912289388
76, 0.00, 0.00, -9512.52, -27838.54, 3826.28, 0.00, 0.00, 0.00, 0.000, 0.000, 0.000, 19:38:09.395, 1565912289395
77, 0.00, 0.00, -9526.13, -27839.41, 3829.48, 0.00, 0.00, 0.00, 0.012, 0.018, 0.968, 19:38:09.395, 1565912289395
78, 0.00, 0.00, -9655.93, -27852.26, 3818.82, 0.00, 0.00, 0.00, 0.000, 0.000, 0.000, 19:38:09.401, 1565912289401
79, 0.00, 0.00, -9683.89, -27849.47, 3815.69, 0.00, 0.00, 0.00, 0.000, 0.000, 0.000, 19:38:09.409, 1565912289409
80, 0.00, 0.00, -9532.44, -27837.00, 3821.86, 0.00, 0.00, 0.00, 0.000, 0.000, 0.000, 19:38:09.410, 1565912289410
81, 0.00, 0.00, -9518.69, -27841.47, 3821.66, 0.00, 0.00, 0.00, 0.000, 0.000, 0.000, 19:38:09.417, 1565912289417
82, 0.00, 0.00, -9628.15, -27848.93, 3817.45, 0.00, 0.00, 0.00, 0.000, 0.000, 0.000, 19:38:09.418, 1565912289418
83, 0.00, 0.00, -9694.20, -27853.45, 3811.11, 0.00, 0.00, 0.00, 0.000, 0.000, 0.000, 19:38:09.424, 1565912289424
84, 0.00, 0.00, -9565.90, -27848.51, 3812.94, 0.00, 0.00, 0.00, 0.000, 0.000, 0.000, 19:38:09.424, 1565912289424
85, 0.00, 0.00, -9530.47, -27854.30, 3809.05, 0.00, 0.00, 0.00, 0.000, 0.000, 0.000, 19:38:09.432, 1565912289432
86, 0.00, 0.00, -9615.36, -27861.87, 3803.31, 0.00, 0.00, 0.00, 0.012, 0.020, 0.968, 19:38:09.432, 1565912289432
87, 0.00, 0.00, -9699.23, -27857.47, 3807.49, 0.00, 0.00, 0.00, 0.000, 0.000, 0.000, 19:38:09.440, 1565912289440
88, 0.00, 0.00, -9584.74, -27846.58, 3815.62, 0.00, 0.00, 0.00, 0.000, 0.000, 0.000, 19:38:09.440, 1565912289440
89, 0.00, 0.00, -9508.52, -27839.14, 3826.69, 0.00, 0.00, 0.00, 0.000, 0.000, 0.000, 19:38:09.447, 1565912289447
90, 0.00, 0.00, -9575.96, -27843.48, 3824.58, 0.00, 0.00, 0.00, 0.000, 0.000, 0.000, 19:38:09.447, 1565912289447
91, 0.00, 0.00, -9694.49, -27861.47, 3803.62, 0.00, 0.00, 0.00, 0.000, 0.000, 0.000, 19:38:09.455, 1565912289455
92, 0.00, 0.00, -9611.27, -27850.05, 3808.69, 0.00, 0.00, 0.00, 0.000, 0.000, 0.000, 19:38:09.455, 1565912289455
93, 0.00, 0.00, -9503.11, -27835.36, 3824.20, 0.00, 0.00, 0.00, 0.000, 0.000, 0.000, 19:38:09.462, 1565912289462
94, 0.00, 0.00, -9553.60, -27845.82, 3815.44, 0.00, 0.00, 0.00, 0.000, 0.000, 0.000, 19:38:09.470, 1565912289470
95, 0.00, 0.00, -9681.75, -27860.15, 3801.94, 0.00, 0.00, 0.00, 0.000, 0.000, 0.000, 19:38:09.470, 1565912289470
96, 0.00, 0.00, -9640.40, -27855.44, 3802.39, 0.00, 0.00, 0.00, 0.006, 0.022, 0.964, 19:38:09.476, 1565912289476
97, 0.00, 0.00, -9518.80, -27847.77, 3812.76, 0.00, 0.00, 0.00, 0.000, 0.000, 0.000, 19:38:09.477, 1565912289477
98, 0.00, 0.00, -9547.35, -27851.03, 3813.70, 0.00, 0.00, 0.00, 0.000, 0.000, 0.000, 19:38:09.485, 1565912289485
99, 0.00, 0.00, -9669.63, -27863.50, 3801.45, 0.00, 0.00, 0.00, 0.000, 0.000, 0.000, 19:38:09.485, 1565912289485
100, 0.00, 0.00, -9677.32, -27866.75, 3794.32, 0.00, 0.00, 0.00, 0.000, 0.000, 0.000, 19:38:09.492, 1565912289492
101, 0.00, 0.00, -9539.10, -27849.24, 3808.96, 0.00, 0.00, 0.00, 0.000, 0.000, 0.000, 19:38:09.493, 1565912289493
102, 0.00, 0.00, -9543.01, -27854.68, 3806.90, 0.00, 0.00, 0.00, 0.000, 0.000, 0.000, 19:38:09.499, 1565912289499
103, 0.00, 0.00, -9650.01, -27865.99, 3797.29, 0.00, 0.00, 0.00, 0.000, 0.000, 0.000, 19:38:09.500, 1565912289500
104, 0.00, 0.00, -9686.93, -27860.91, 3801.67, 0.00, 0.00, 0.00, 0.000, 0.000, 0.000, 19:38:09.507, 1565912289507
105, 0.00, 0.00, -9549.60, -27842.03, 3818.55, 0.00, 0.00, 0.00, 0.000, 0.000, 0.000, 19:38:09.507, 1565912289507
106, 0.00, 0.00, -9534.63, -27851.10, 3812.27, 0.00, 0.00, 0.00, 0.010, 0.020, 0.962, 19:38:09.515, 1565912289515
107, 0.00, 0.00, -9632.75, -27860.20, 3806.05, 0.00, 0.00, 0.00, 0.000, 0.000, 0.000, 19:38:09.515, 1565912289515
108, 0.00, 0.00, -9708.99, -27866.32, 3798.32, 0.00, 0.00, 0.00, 0.000, 0.000, 0.000, 19:38:09.522, 1565912289522
109, 0.00, 0.00, -9582.93, -27854.12, 3804.24, 0.00, 0.00, 0.00, 0.000, 0.000, 0.000, 19:38:09.529, 1565912289529
110, 0.00, 0.00, -9523.09, -27847.61, 3809.97, 0.00, 0.00, 0.00, 0.000, 0.000, 0.000, 19:38:09.529, 1565912289529
111, 0.00, 0.00, -9602.24, -27855.28, 3807.98, 0.00, 0.00, 0.00, 0.000, 0.000, 0.000, 19:38:09.537, 1565912289537
112, 0.00, 0.00, -9704.84, -27866.10, 3799.60, 0.00, 0.00, 0.00, 0.000, 0.000, 0.000, 19:38:09.537, 1565912289537
113, 0.00, 0.00, -9605.28, -27857.58, 3803.69, 0.00, 0.00, 0.00, 0.000, 0.000, 0.000, 19:38:09.546, 1565912289546
114, 0.00, 0.00, -9521.24, -27851.35, 3811.78, 0.00, 0.00, 0.00, 0.000, 0.000, 0.000, 19:38:09.546, 1565912289546
115, 0.00, 0.00, -9578.04, -27854.01, 3812.63, 0.00, 0.00, 0.00, 0.000, 0.000, 0.000, 19:38:09.552, 1565912289552
116, 0.00, 0.00, -9699.03, -27866.01, 3798.08, 0.00, 0.00, 0.00, 0.010, 0.016, 0.972, 19:38:09.553, 1565912289553
117, 0.00, 0.00, -9640.69, -27865.96, 3792.51, 0.00, 0.00, 0.00, 0.000, 0.000, 0.000, 19:38:09.559, 1565912289559
118, 0.00, 0.00, -9533.13, -27858.07, 3801.00, 0.00, 0.00, 0.00, 0.000, 0.000, 0.000, 19:38:09.559, 1565912289559
119, 0.00, 0.00, -9579.04, -27873.16, 3788.11, 0.00, 0.00, 0.00, 0.000, 0.000, 0.000, 19:38:09.567, 1565912289567
120, 0.00, 0.00, -9703.56, -27886.71, 3776.71, 0.00, 0.00, 0.00, 0.000, 0.000, 0.000, 19:38:09.567, 1565912289567
121, 0.00, 0.00, -9678.10, -27884.02, 3774.85, 0.00, 0.00, 0.00, 0.000, 0.000, 0.000, 19:38:09.576, 1565912289576
122, 0.00, 0.00, -9547.32, -27869.36, 3786.61, 0.00, 0.00, 0.00, 0.000, 0.000, 0.000, 19:38:09.576, 1565912289576
123, 0.00, 0.00, -9564.92, -27867.97, 3791.48, 0.00, 0.00, 0.00, 0.000, 0.000, 0.000, 19:38:09.581, 1565912289581
124, 0.00, 0.00, -9680.79, -27876.67, 3785.51, 0.00, 0.00, 0.00, 0.000, 0.000, 0.000, 19:38:09.581, 1565912289581
125, 0.00, 0.00, -9696.54, -27878.41, 3780.08, 0.00, 0.00, 0.00, 0.000, 0.000, 0.000, 19:38:09.589, 1565912289589
126, 0.00, 0.00, -9560.87, -27867.35, 3789.49, 0.00, 0.00, 0.00, 0.016, 0.014, 0.966, 19:38:09.597, 1565912289597
127, 0.00, 0.00, -9548.33, -27862.57, 3799.08, 0.00, 0.00, 0.00, 0.000, 0.000, 0.000, 19:38:09.597, 1565912289597
128, 0.00, 0.00, -9657.34, -27872.87, 3792.11, 0.00, 0.00, 0.00, 0.000, 0.000, 0.000, 19:38:09.605, 1565912289605
129, 0.00, 0.00, -9708.73, -27875.37, 3787.15, 0.00, 0.00, 0.00, 0.000, 0.000, 0.000, 19:38:09.605, 1565912289605
130, 0.00, 0.00, -9572.36, -27860.29, 3799.26, 0.00, 0.00, 0.00, 0.000, 0.000, 0.000, 19:38:09.611, 1565912289611
131, 0.00, 0.00, -9533.15, -27848.82, 3813.32, 0.00, 0.00, 0.00, 0.000, 0.000, 0.000, 19:38:09.612, 1565912289612
132, 0.00, 0.00, -9628.82, -27857.36, 3806.64, 0.00, 0.00, 0.00, 0.000, 0.000, 0.000, 19:38:09.619, 1565912289619
133, 0.00, 0.00, -9716.62, -27868.91, 3794.12, 0.00, 0.00, 0.00, 0.000, 0.000, 0.000, 19:38:09.620, 1565912289620
134, 0.00, 0.00, -9588.50, -27852.82, 3805.85, 0.00, 0.00, 0.00, 0.000, 0.000, 0.000, 19:38:09.627, 1565912289627
135, 0.00, 0.00, -9523.14, -27844.17, 3814.50, 0.00, 0.00, 0.00, 0.000, 0.000, 0.000, 19:38:09.627, 1565912289627
136, 0.00, 0.00, -9599.29, -27854.65, 3806.14, 0.00, 0.00, 0.00, 0.012, 0.016, 0.968, 19:38:09.635, 1565912289635
137, 0.00, 0.00, -9704.05, -27861.58, 3799.89, 0.00, 0.00, 0.00, 0.000, 0.000, 0.000, 19:38:09.635, 1565912289635
138, 0.00, 0.00, -9611.56, -27852.73, 3803.13, 0.00, 0.00, 0.00, 0.000, 0.000, 0.000, 19:38:09.642, 1565912289642
139, 0.00, 0.00, -9520.19, -27846.12, 3809.94, 0.00, 0.00, 0.00, 0.000, 0.000, 0.000, 19:38:09.642, 1565912289642
140, 0.00, 0.00, -9575.93, -27853.40, 3806.41, 0.00, 0.00, 0.00, 0.000, 0.000, 0.000, 19:38:09.649, 1565912289649
141, 0.00, 0.00, -9699.03, -27865.96, 3794.86, 0.00, 0.00, 0.00, 0.000, 0.000, 0.000, 19:38:09.657, 1565912289657
142, 0.00, 0.00, -9636.17, -27857.40, 3797.90, 0.00, 0.00, 0.00, 0.000, 0.000, 0.000, 19:38:09.657, 1565912289657
143, 0.00, 0.00, -9518.76, -27844.60, 3811.82, 0.00, 0.00, 0.00, 0.000, 0.000, 0.000, 19:38:09.664, 1565912289664
144, 0.00, 0.00, -9554.05, -27848.46, 3813.99, 0.00, 0.00, 0.00, 0.000, 0.000, 0.000, 19:38:09.664, 1565912289664
145, 0.00, 0.00, -9677.39, -27855.26, 3809.59, 0.00, 0.00, 0.00, 0.008, 0.014, 0.960, 19:38:09.672, 1565912289672
146, 0.00, 0.00, -9663.91, -27851.77, 3806.77, 0.00, 0.00, 0.00, 0.000, 0.000, 0.000, 19:38:09.672, 1565912289672
147, 0.00, 0.00, -9527.79, -27836.91, 3818.04, 0.00, 0.00, 0.00, 0.000, 0.000, 0.000, 19:38:09.680, 1565912289680
148, 0.00, 0.00, -9531.23, -27832.32, 3828.54, 0.00, 0.00, 0.00, 0.000, 0.000, 0.000, 19:38:09.680, 1565912289680
149, 0.00, 0.00, -9646.32, -27841.04, 3822.42, 0.00, 0.00, 0.00, 0.000, 0.000, 0.000, 19:38:09.688, 1565912289688
150, 0.00, 0.00, -9676.65, -27845.06, 3814.01, 0.00, 0.00, 0.00, 0.000, 0.000, 0.000, 19:38:09.688, 1565912289688
151, 0.00, 0.00, -9530.63, -27827.16, 3828.72, 0.00, 0.00, 0.00, 0.000, 0.000, 0.000, 19:38:09.694, 1565912289694
152, 0.00, 0.00, -9514.04, -27827.18, 3832.36, 0.00, 0.00, 0.00, 0.000, 0.000, 0.000, 19:38:09.694, 1565912289694
153, 0.00, 0.00, -9618.11, -27834.92, 3828.81, 0.00, 0.00, 0.00, 0.000, 0.000, 0.000, 19:38:09.702, 1565912289702
154, 0.00, 0.00, -9681.39, -27843.25, 3817.48, 0.00, 0.00, 0.00, 0.000, 0.000, 0.000, 19:38:09.702, 1565912289702
155, 0.00, 0.00, -9547.70, -27829.22, 3826.77, 0.00, 0.00, 0.00, 0.006, 0.016, 0.966, 19:38:09.709, 1565912289709
156, 0.00, 0.00, -9498.31, -27819.83, 3838.38, 0.00, 0.00, 0.00, 0.000, 0.000, 0.000, 19:38:09.717, 1565912289717
157, 0.00, 0.00, -9587.33, -27829.11, 3830.28, 0.00, 0.00, 0.00, 0.000, 0.000, 0.000, 19:38:09.718, 1565912289718
158, 0.00, 0.00, -9677.08, -27830.85, 3829.39, 0.00, 0.00, 0.00, 0.000, 0.000, 0.000, 19:38:09.724, 1565912289724
159, 0.00, 0.00, -9559.62, -27817.93, 3836.56, 0.00, 0.00, 0.00, 0.000, 0.000, 0.000, 19:38:09.724, 1565912289724
160, 0.00, 0.00, -9492.47, -27819.29, 3835.54, 0.00, 0.00, 0.00, 0.000, 0.000, 0.000, 19:38:09.732, 1565912289732
161, 0.00, 0.00, -9565.47, -27828.01, 3832.72, 0.00, 0.00, 0.00, 0.000, 0.000, 0.000, 19:38:09.732, 1565912289732
162, 0.00, 0.00, -9673.43, -27836.88, 3822.39, 0.00, 0.00, 0.00, 0.000, 0.000, 0.000, 19:38:09.742, 1565912289742
163, 0.00, 0.00, -9589.26, -27824.95, 3828.83, 0.00, 0.00, 0.00, 0.000, 0.000, 0.000, 19:38:09.742, 1565912289742
164, 0.00, 0.00, -9486.53, -27812.54, 3842.38, 0.00, 0.00, 0.00, 0.000, 0.000, 0.000, 19:38:09.747, 1565912289747
165, 0.00, 0.00, -9538.16, -27822.87, 3835.76, 0.00, 0.00, 0.00, 0.014, 0.016, 0.970, 19:38:09.747, 1565912289747
166, 0.00, 0.00, -9661.65, -27835.43, 3824.29, 0.00, 0.00, 0.00, 0.000, 0.000, 0.000, 19:38:09.755, 1565912289755
167, 0.00, 0.00, -9619.86, -27830.31, 3824.07, 0.00, 0.00, 0.00, 0.000, 0.000, 0.000, 19:38:09.755, 1565912289755
168, 0.00, 0.00, -9491.09, -27809.41, 3845.24, 0.00, 0.00, 0.00, 0.000, 0.000, 0.000, 19:38:09.763, 1565912289763
169, 0.00, 0.00, -9515.61, -27812.63, 3845.46, 0.00, 0.00, 0.00, 0.000, 0.000, 0.000, 19:38:09.763, 1565912289763
170, 0.00, 0.00, -9646.83, -27834.25, 3826.57, 0.00, 0.00, 0.00, 0.000, 0.000, 0.000, 19:38:09.770, 1565912289770
171, 0.00, 0.00, -9642.41, -27828.01, 3830.93, 0.00, 0.00, 0.00, 0.000, 0.000, 0.000, 19:38:09.776, 1565912289776
172, 0.00, 0.00, -9504.36, -27810.13, 3846.98, 0.00, 0.00, 0.00, 0.000, 0.000, 0.000, 19:38:09.776, 1565912289776
173, 0.00, 0.00, -9513.06, -27817.19, 3843.63, 0.00, 0.00, 0.00, 0.000, 0.000, 0.000, 19:38:09.784, 1565912289784
174, 0.00, 0.00, -9633.91, -27832.37, 3831.31, 0.00, 0.00, 0.00, 0.000, 0.000, 0.000, 19:38:09.784, 1565912289784
175, 0.00, 0.00, -9663.15, -27831.74, 3827.80, 0.00, 0.00, 0.00, 0.010, 0.010, 0.970, 19:38:09.792, 1565912289792
176, 0.00, 0.00, -9523.99, -27815.87, 3839.67, 0.00, 0.00, 0.00, 0.000, 0.000, 0.000, 19:38:09.792, 1565912289792
177, 0.00, 0.00, -9499.69, -27813.79, 3844.52, 0.00, 0.00, 0.00, 0.000, 0.000, 0.000, 19:38:09.801, 1565912289801
178, 0.00, 0.00, -9599.92, -27823.03, 3839.09, 0.00, 0.00, 0.00, 0.000, 0.000, 0.000, 19:38:09.801, 1565912289801
179, 0.00, 0.00, -9678.89, -27832.50, 3827.58, 0.00, 0.00, 0.00, 0.000, 0.000, 0.000, 19:38:09.807, 1565912289807
180, 0.00, 0.00, -9555.86, -27819.00, 3835.63, 0.00, 0.00, 0.00, 0.000, 0.000, 0.000, 19:38:09.807, 1565912289807
181, 0.00, 0.00, -9492.14, -27808.41, 3847.85, 0.00, 0.00, 0.00, 0.000, 0.000, 0.000, 19:38:09.815, 1565912289815
182, 0.00, 0.00, -9571.60, -27816.28, 3844.41, 0.00, 0.00, 0.00, 0.000, 0.000, 0.000, 19:38:09.815, 1565912289815
183, 0.00, 0.00, -9673.32, -27827.09, 3832.34, 0.00, 0.00, 0.00, 0.000, 0.000, 0.000, 19:38:09.823, 1565912289823
184, 0.00, 0.00, -9575.24, -27819.12, 3835.43, 0.00, 0.00, 0.00, 0.000, 0.000, 0.000, 19:38:09.823, 1565912289823
185, 0.00, 0.00, -9491.82, -27810.55, 3846.27, 0.00, 0.00, 0.00, 0.006, 0.018, 0.968, 19:38:09.829, 1565912289829
186, 0.00, 0.00, -9549.31, -27812.36, 3848.86, 0.00, 0.00, 0.00, 0.000, 0.000, 0.000, 19:38:09.829, 1565912289829
187, 0.00, 0.00, -9666.21, -27824.70, 3836.48, 0.00, 0.00, 0.00, 0.000, 0.000, 0.000, 19:38:09.836, 1565912289836
188, 0.00, 0.00, -9598.40, -27822.24, 3836.50, 0.00, 0.00, 0.00, 0.000, 0.000, 0.000, 19:38:09.844, 1565912289844
189, 0.00, 0.00, -9491.20, -27812.61, 3846.09, 0.00, 0.00, 0.00, 0.000, 0.000, 0.000, 19:38:09.845, 1565912289845
190, 0.00, 0.00, -9535.86, -27819.38, 3843.58, 0.00, 0.00, 0.00, 0.000, 0.000, 0.000, 19:38:09.852, 1565912289852
191, 0.00, 0.00, -9660.96, -27831.79, 3832.12, 0.00, 0.00, 0.00, 0.000, 0.000, 0.000, 19:38:09.853, 1565912289853
192, 0.00, 0.00, -9630.27, -27828.97, 3829.73, 0.00, 0.00, 0.00, 0.000, 0.000, 0.000, 19:38:09.859, 1565912289859
193, 0.00, 0.00, -9495.13, -27813.53, 3843.58, 0.00, 0.00, 0.00, 0.000, 0.000, 0.000, 19:38:09.859, 1565912289859
194, 0.00, 0.00, -9512.57, -27811.16, 3848.32, 0.00, 0.00, 0.00, 0.000, 0.000, 0.000, 19:38:09.867, 1565912289867
195, 0.00, 0.00, -9635.99, -27822.98, 3838.67, 0.00, 0.00, 0.00, 0.010, 0.020, 0.958, 19:38:09.867, 1565912289867
196, 0.00, 0.00, -9646.43, -27827.03, 3830.75, 0.00, 0.00, 0.00, 0.000, 0.000, 0.000, 19:38:09.875, 1565912289875
197, 0.00, 0.00, -9517.37, -27819.40, 3839.40, 0.00, 0.00, 0.00, 0.000, 0.000, 0.000, 19:38:09.875, 1565912289875
198, 0.00, 0.00, -9506.69, -27812.50, 3848.55, 0.00, 0.00, 0.00, 0.000, 0.000, 0.000, 19:38:09.882, 1565912289882
199, 0.00, 0.00, -9624.73, -27828.30, 3834.51, 0.00, 0.00, 0.00, 0.000, 0.000, 0.000, 19:38:09.882, 1565912289882
200, 0.00, 0.00, -9671.06, -27828.70, 3830.28, 0.00, 0.00, 0.00, 0.000, 0.000, 0.000, 19:38:09.890, 1565912289890
201, 0.00, 0.00, -9522.67, -27811.87, 3843.11, 0.00, 0.00, 0.00, 0.000, 0.000, 0.000, 19:38:09.890, 1565912289890
202, 0.00, 0.00, -9487.67, -27809.08, 3848.88, 0.00, 0.00, 0.00, 0.000, 0.000, 0.000, 19:38:09.897, 1565912289897
203, 0.00, 0.00, -9583.67, -27820.59, 3841.48, 0.00, 0.00, 0.00, 0.000, 0.000, 0.000, 19:38:09.905, 1565912289905
204, 0.00, 0.00, -9660.83, -27822.38, 3836.72, 0.00, 0.00, 0.00, 0.006, 0.020, 0.968, 19:38:09.905, 1565912289905
205, 0.00, 0.00, -9536.93, -27807.33, 3846.67, 0.00, 0.00, 0.00, 0.000, 0.000, 0.000, 19:38:09.911, 1565912289911
206, 0.00, 0.00, -9482.77, -27805.03, 3852.97, 0.00, 0.00, 0.00, 0.000, 0.000, 0.000, 19:38:09.911, 1565912289911
207, 0.00, 0.00, -9559.64, -27813.64, 3847.94, 0.00, 0.00, 0.00, 0.000, 0.000, 0.000, 19:38:09.919, 1565912289919
208, 0.00, 0.00, -9662.75, -27819.81, 3840.68, 0.00, 0.00, 0.00, 0.000, 0.000, 0.000, 19:38:09.919, 1565912289919
209, 0.00, 0.00, -9566.93, -27810.24, 3846.29, 0.00, 0.00, 0.00, 0.000, 0.000, 0.000, 19:38:09.931, 1565912289931
210, 0.00, 0.00, -9487.26, -27812.23, 3846.71, 0.00, 0.00, 0.00, 0.000, 0.000, 0.000, 19:38:09.931, 1565912289931
211, 0.00, 0.00, -9546.79, -27823.32, 3840.12, 0.00, 0.00, 0.00, 0.000, 0.000, 0.000, 19:38:09.934, 1565912289934
212, 0.00, 0.00, -9666.44, -27833.73, 3830.11, 0.00, 0.00, 0.00, 0.000, 0.000, 0.000, 19:38:09.934, 1565912289934
213, 0.00, 0.00, -9607.36, -27827.81, 3831.18, 0.00, 0.00, 0.00, 0.000, 0.000, 0.000, 19:38:09.942, 1565912289942
214, 0.00, 0.00, -9489.30, -27811.29, 3848.95, 0.00, 0.00, 0.00, 0.008, 0.016, 0.972, 19:38:09.942, 1565912289942
215, 0.00, 0.00, -9523.43, -27814.29, 3850.91, 0.00, 0.00, 0.00, 0.000, 0.000, 0.000, 19:38:09.950, 1565912289950
216, 0.00, 0.00, -9649.45, -27829.91, 3836.72, 0.00, 0.00, 0.00, 0.000, 0.000, 0.000, 19:38:09.950, 1565912289950
217, 0.00, 0.00, -9627.10, -27826.94, 3835.07, 0.00, 0.00, 0.00, 0.000, 0.000, 0.000, 19:38:09.957, 1565912289957
218, 0.00, 0.00, -9496.07, -27818.98, 3843.07, 0.00, 0.00, 0.00, 0.000, 0.000, 0.000, 19:38:09.964, 1565912289964
219, 0.00, 0.00, -9515.50, -27824.21, 3845.10, 0.00, 0.00, 0.00, 0.000, 0.000, 0.000, 19:38:09.964, 1565912289964
220, 0.00, 0.00, -9635.75, -27834.67, 3836.68, 0.00, 0.00, 0.00, 0.000, 0.000, 0.000, 19:38:09.972, 1565912289972
221, 0.00, 0.00, -9657.76, -27842.56, 3822.77, 0.00, 0.00, 0.00, 0.000, 0.000, 0.000, 19:38:09.972, 1565912289972
222, 0.00, 0.00, -9514.49, -27830.63, 3829.88, 0.00, 0.00, 0.00, 0.000, 0.000, 0.000, 19:38:09.980, 1565912289980
223, 0.00, 0.00, -9504.88, -27827.23, 3835.72, 0.00, 0.00, 0.00, 0.000, 0.000, 0.000, 19:38:09.981, 1565912289981
224, 0.00, 0.00, -9620.12, -27835.83, 3829.39, 0.00, 0.00, 0.00, 0.008, 0.020, 0.974, 19:38:09.988, 1565912289988
225, 0.00, 0.00, -9686.15, -27839.10, 3824.27, 0.00, 0.00, 0.00, 0.000, 0.000, 0.000, 19:38:09.988, 1565912289988
226, 0.00, 0.00, -9538.54, -27822.65, 3836.92, 0.00, 0.00, 0.00, 0.000, 0.000, 0.000, 19:38:09.994, 1565912289994
227, 0.00, 0.00, -9499.89, -27820.81, 3840.72, 0.00, 0.00, 0.00, 0.000, 0.000, 0.000, 19:38:09.994, 1565912289994
228, 0.00, 0.00, -9595.09, -27834.40, 3833.26, 0.00, 0.00, 0.00, 0.000, 0.000, 0.000, 19:38:10.003, 1565912290003
229, 0.00, 0.00, -9685.68, -27845.96, 3821.46, 0.00, 0.00, 0.00, 0.000, 0.000, 0.000, 19:38:10.003, 1565912290003
230, 0.00, 0.00, -9568.92, -27838.70, 3822.95, 0.00, 0.00, 0.00, 0.000, 0.000, 0.000, 19:38:10.011, 1565912290011
231, 0.00, 0.00, -9505.48, -27834.27, 3829.84, 0.00, 0.00, 0.00, 0.000, 0.000, 0.000, 19:38:10.011, 1565912290011
232, 0.00, 0.00, -9581.10, -27843.92, 3821.43, 0.00, 0.00, 0.00, 0.000, 0.000, 0.000, 19:38:10.018, 1565912290018
233, 0.00, 0.00, -9692.79, -27853.47, 3811.04, 0.00, 0.00, 0.00, 0.000, 0.000, 0.000, 19:38:10.024, 1565912290024
234, 0.00, 0.00, -9602.15, -27843.63, 3816.54, 0.00, 0.00, 0.00, 0.008, 0.014, 0.970, 19:38:10.024, 1565912290024
235, 0.00, 0.00, -9499.92, -27831.59, 3828.81, 0.00, 0.00, 0.00, 0.000, 0.000, 0.000, 19:38:10.032, 1565912290032
236, 0.00, 0.00, -9555.30, -27839.41, 3824.96, 0.00, 0.00, 0.00, 0.000, 0.000, 0.000, 19:38:10.032, 1565912290032
237, 0.00, 0.00, -9676.54, -27847.01, 3819.64, 0.00, 0.00, 0.00, 0.000, 0.000, 0.000, 19:38:10.040, 1565912290040
238, 0.00, 0.00, -9619.99, -27831.92, 3831.11, 0.00, 0.00, 0.00, 0.000, 0.000, 0.000, 19:38:10.040, 1565912290040
239, 0.00, 0.00, -9498.33, -27819.31, 3844.01, 0.00, 0.00, 0.00, 0.000, 0.000, 0.000, 19:38:10.047, 1565912290047
240, 0.00, 0.00, -9526.92, -27821.53, 3846.51, 0.00, 0.00, 0.00, 0.000, 0.000, 0.000, 19:38:10.047, 1565912290047
241, 0.00, 0.00, -9651.24, -27832.10, 3839.09, 0.00, 0.00, 0.00, 0.000, 0.000, 0.000, 19:38:10.055, 1565912290055
242, 0.00, 0.00, -9644.98, -27834.76, 3834.98, 0.00, 0.00, 0.00, 0.000, 0.000, 0.000, 19:38:10.055, 1565912290055
243, 0.00, 0.00, -9500.63, -27812.36, 3856.37, 0.00, 0.00, 0.00, 0.000, 0.000, 0.000, 19:38:10.063, 1565912290063
244, 0.00, 0.00, -9505.28, -27809.01, 3860.62, 0.00, 0.00, 0.00, 0.008, 0.016, 0.964, 19:38:10.063, 1565912290063
245, 0.00, 0.00, -9625.53, -27823.72, 3845.68, 0.00, 0.00, 0.00, 0.000, 0.000, 0.000, 19:38:10.070, 1565912290070
246, 0.00, 0.00, -9656.04, -27826.98, 3838.13, 0.00, 0.00, 0.00, 0.000, 0.000, 0.000, 19:38:10.070, 1565912290070
247, 0.00, 0.00, -9516.01, -27814.26, 3849.60, 0.00, 0.00, 0.00, 0.000, 0.000, 0.000, 19:38:10.076, 1565912290076
248, 0.00, 0.00, -9493.81, -27808.79, 3860.73, 0.00, 0.00, 0.00, 0.000, 0.000, 0.000, 19:38:10.077, 1565912290077
249, 0.00, 0.00, -9596.12, -27818.02, 3851.70, 0.00, 0.00, 0.00, 0.000, 0.000, 0.000, 19:38:10.084, 1565912290084
250, 0.00, 0.00, -9662.01, -27823.38, 3842.67, 0.00, 0.00, 0.00, 0.000, 0.000, 0.000, 19:38:10.092, 1565912290092
251, 0.00, 0.00, -9531.57, -27807.40, 3854.85, 0.00, 0.00, 0.00, 0.000, 0.000, 0.000, 19:38:10.092, 1565912290092
252, 0.00, 0.00, -9477.72, -27797.28, 3863.21, 0.00, 0.00, 0.00, 0.000, 0.000, 0.000, 19:38:10.099, 1565912290099
253, 0.00, 0.00, -9561.03, -27806.11, 3855.70, 0.00, 0.00, 0.00, 0.000, 0.000, 0.000, 19:38:10.100, 1565912290100
254, 0.00, 0.00, -9666.75, -27821.69, 3840.30, 0.00, 0.00, 0.00, 0.008, 0.016, 0.962, 19:38:10.107, 1565912290107
255, 0.00, 0.00, -9553.07, -27803.80, 3853.28, 0.00, 0.00, 0.00, 0.000, 0.000, 0.000, 19:38:10.107, 1565912290107
0, 0.00, 0.00, -9468.78, -27792.47, 3864.97, 0.00, 0.00, 0.00, 0.000, 0.000, 0.000, 19:38:10.115, 1565912290115
1, 0.00, 0.00, -9534.65, -27802.73, 3858.22, 0.00, 0.00, 0.00, 0.000, 0.000, 0.000, 19:38:10.115, 1565912290115
2, 0.00, 0.00, -9650.46, -27811.98, 3849.22, 0.00, 0.00, 0.00, 0.000, 0.000, 0.000, 19:38:10.123, 1565912290123
3, 0.00, 0.00, -9572.94, -27802.06, 3855.77, 0.00, 0.00, 0.00, 0.000, 0.000, 0.000, 19:38:10.123, 1565912290123
4, 0.00, 0.00, -9467.86, -27790.73, 3869.60, 0.00, 0.00, 0.00, 0.000, 0.000, 0.000, 19:38:10.130, 1565912290130
5, 0.00, 0.00, -9514.56, -27799.09, 3863.86, 0.00, 0.00, 0.00, 0.000, 0.000, 0.000, 19:38:10.130, 1565912290130
6, 0.00, 0.00, -9636.98, -27805.84, 3858.60, 0.00, 0.00, 0.00, 0.000, 0.000, 0.000, 19:38:10.138, 1565912290138
7, 0.00, 0.00, -9596.65, -27800.63, 3859.86, 0.00, 0.00, 0.00, 0.000, 0.000, 0.000, 19:38:10.138, 1565912290138
8, 0.00, 0.00, -9473.70, -27792.83, 3866.78, 0.00, 0.00, 0.00, 0.010, 0.018, 0.966, 19:38:10.145, 1565912290145
9, 0.00, 0.00, -9499.31, -27797.39, 3866.05, 0.00, 0.00, 0.00, 0.000, 0.000, 0.000, 19:38:10.152, 1565912290152
10, 0.00, 0.00, -9618.74, -27808.56, 3857.96, 0.00, 0.00, 0.00, 0.000, 0.000, 0.000, 19:38:10.153, 1565912290153
11, 0.00, 0.00, -9617.67, -27801.88, 3859.12, 0.00, 0.00, 0.00, 0.000, 0.000, 0.000, 19:38:10.159, 1565912290159
12, 0.00, 0.00, -9484.31, -27787.04, 3871.75, 0.00, 0.00, 0.00, 0.000, 0.000, 0.000, 19:38:10.159, 1565912290159
13, 0.00, 0.00, -9482.48, -27785.47, 3876.19, 0.00, 0.00, 0.00, 0.000, 0.000, 0.000, 19:38:10.167, 1565912290167
14, 0.00, 0.00, -9597.06, -27795.82, 3868.24, 0.00, 0.00, 0.00, 0.000, 0.000, 0.000, 19:38:10.167, 1565912290167
15, 0.00, 0.00, -9642.25, -27801.30, 3861.62, 0.00, 0.00, 0.00, 0.000, 0.000, 0.000, 19:38:10.177, 1565912290177
16, 0.00, 0.00, -9503.74, -27787.89, 3873.80, 0.00, 0.00, 0.00, 0.000, 0.000, 0.000, 19:38:10.177, 1565912290177
17, 0.00, 0.00, -9475.06, -27785.92, 3878.05, 0.00, 0.00, 0.00, 0.010, 0.016, 0.968, 19:38:10.183, 1565912290183
18, 0.00, 0.00, -9574.24, -27800.52, 3863.39, 0.00, 0.00, 0.00, 0.000, 0.000, 0.000, 19:38:10.183, 1565912290183
19, 0.00, 0.00, -9655.68, -27811.65, 3850.27, 0.00, 0.00, 0.00, 0.000, 0.000, 0.000, 19:38:10.191, 1565912290191
20, 0.00, 0.00, -9526.13, -27793.77, 3863.21, 0.00, 0.00, 0.00, 0.000, 0.000, 0.000, 19:38:10.191, 1565912290191
21, 0.00, 0.00, -9475.60, -27795.22, 3864.75, 0.00, 0.00, 0.00, 0.000, 0.000, 0.000, 19:38:10.198, 1565912290198
22, 0.00, 0.00, -9553.25, -27805.44, 3859.19, 0.00, 0.00, 0.00, 0.000, 0.000, 0.000, 19:38:10.198, 1565912290198
23, 0.00, 0.00, -9656.33, -27811.43, 3855.21, 0.00, 0.00, 0.00, 0.000, 0.000, 0.000, 19:38:10.205, 1565912290205
24, 0.00, 0.00, -9559.89, -27800.92, 3862.47, 0.00, 0.00, 0.00, 0.000, 0.000, 0.000, 19:38:10.212, 1565912290212
25, 0.00, 0.00, -9465.09, -27788.16, 3874.99, 0.00, 0.00, 0.00, 0.000, 0.000, 0.000, 19:38:10.212, 1565912290212
26, 0.00, 0.00, -9515.54, -27789.90, 3874.65, 0.00, 0.00, 0.00, 0.000, 0.000, 0.000, 19:38:10.220, 1565912290220
27, 0.00, 0.00, -9637.20, -27805.50, 3858.05, 0.00, 0.00, 0.00, 0.014, 0.016, 0.966, 19:38:10.220, 1565912290220
28, 0.00, 0.00, -9577.25, -27806.20, 3851.56, 0.00, 0.00, 0.00, 0.000, 0.000, 0.000, 19:38:10.228, 1565912290228
29, 0.00, 0.00, -9471.08, -27804.50, 3852.77, 0.00, 0.00, 0.00, 0.000, 0.000, 0.000, 19:38:10.228, 1565912290228
30, 0.00, 0.00, -9511.00, -27808.90, 3852.41, 0.00, 0.00, 0.00, 0.000, 0.000, 0.000, 19:38:10.236, 1565912290236
31, 0.00, 0.00, -9635.70, -27820.14, 3841.88, 0.00, 0.00, 0.00, 0.000, 0.000, 0.000, 19:38:10.236, 1565912290236
32, 0.00, 0.00, -9616.75, -27818.85, 3840.39, 0.00, 0.00, 0.00, 0.000, 0.000, 0.000, 19:38:10.242, 1565912290242
33, 0.00, 0.00, -9483.49, -27800.63, 3856.99, 0.00, 0.00, 0.00, 0.000, 0.000, 0.000, 19:38:10.242, 1565912290242
34, 0.00, 0.00, -9498.17, -27800.34, 3862.49, 0.00, 0.00, 0.00, 0.000, 0.000, 0.000, 19:38:10.250, 1565912290250
35, 0.00, 0.00, -9617.24, -27814.31, 3851.50, 0.00, 0.00, 0.00, 0.000, 0.000, 0.000, 19:38:10.251, 1565912290251
36, 0.00, 0.00, -9633.98, -27812.43, 3850.74, 0.00, 0.00, 0.00, 0.000, 0.000, 0.000, 19:38:10.258, 1565912290258
37, 0.00, 0.00, -9491.44, -27796.14, 3862.96, 0.00, 0.00, 0.00, 0.008, 0.016, 0.964, 19:38:10.258, 1565912290258
38, 0.00, 0.00, -9481.14, -27794.30, 3867.21, 0.00, 0.00, 0.00, 0.000, 0.000, 0.000, 19:38:10.266, 1565912290266
39, 0.00, 0.00, -9588.88, -27805.17, 3858.22, 0.00, 0.00, 0.00, 0.000, 0.000, 0.000, 19:38:10.272, 1565912290272
40, 0.00, 0.00, -9647.17, -27814.44, 3845.42, 0.00, 0.00, 0.00, 0.000, 0.000, 0.000, 19:38:10.272, 1565912290272
41, 0.00, 0.00, -9511.38, -27797.84, 3859.56, 0.00, 0.00, 0.00, 0.000, 0.000, 0.000, 19:38:10.280, 1565912290280
42, 0.00, 0.00, -9475.73, -27792.58, 3867.10, 0.00, 0.00, 0.00, 0.000, 0.000, 0.000, 19:38:10.280, 1565912290280
43, 0.00, 0.00, -9573.97, -27805.12, 3857.87, 0.00, 0.00, 0.00, 0.000, 0.000, 0.000, 19:38:10.288, 1565912290288
44, 0.00, 0.00, -9658.21, -27814.98, 3843.43, 0.00, 0.00, 0.00, 0.000, 0.000, 0.000, 19:38:10.288, 1565912290288
45, 0.00, 0.00, -9538.70, -27801.48, 3853.51, 0.00, 0.00, 0.00, 0.000, 0.000, 0.000, 19:38:10.294, 1565912290294
46, 0.00, 0.00, -9472.69, -27794.08, 3863.50, 0.00, 0.00, 0.00, 0.000, 0.000, 0.000, 19:38:10.294, 1565912290294
47, 0.00, 0.00, -9547.70, -27802.31, 3860.50, 0.00, 0.00, 0.00, 0.008, 0.010, 0.968, 19:38:10.303, 1565912290303
48, 0.00, 0.00, -9656.38, -27812.68, 3851.67, 0.00, 0.00, 0.00, 0.000, 0.000, 0.000, 19:38:10.303, 1565912290303
49, 0.00, 0.00, -9566.88, -27804.07, 3855.59, 0.00, 0.00, 0.00, 0.000, 0.000, 0.000, 19:38:10.310, 1565912290310
50, 0.00, 0.00, -9472.45, -27791.31, 3869.65, 0.00, 0.00, 0.00, 0.000, 0.000, 0.000, 19:38:10.311, 1565912290311
51, 0.00, 0.00, -9522.98, -27795.80, 3866.74, 0.00, 0.00, 0.00, 0.000, 0.000, 0.000, 19:38:10.317, 1565912290317
52, 0.00, 0.00, -9641.58, -27808.65, 3852.57, 0.00, 0.00, 0.00, 0.000, 0.000, 0.000, 19:38:10.318, 1565912290318
53, 0.00, 0.00, -9588.34, -27799.22, 3857.78, 0.00, 0.00, 0.00, 0.000, 0.000, 0.000, 19:38:10.324, 1565912290324
54, 0.00, 0.00, -9464.98, -27778.08, 3880.58, 0.00, 0.00, 0.00, 0.000, 0.000, 0.000, 19:38:10.324, 1565912290324
55, 0.00, 0.00, -9473.74, -27756.98, 3905.30, 0.00, 0.00, 0.00, 0.000, 0.000, 0.000, 19:38:10.332, 1565912290332
56, 0.00, 0.00, -9580.76, -27750.99, 3910.42, 0.00, 0.00, 0.00, 0.000, 0.000, 0.000, 19:38:10.340, 1565912290340
57, 0.00, 0.00, -9560.91, -27745.60, 3912.49, 0.00, 0.00, 0.00, 0.010, 0.016, 0.964, 19:38:10.340, 1565912290340
58, 0.00, 0.00, -9425.15, -27730.45, 3928.12, 0.00, 0.00, 0.00, 0.000, 0.000, 0.000, 19:38:10.347, 1565912290347
59, 0.00, 0.00, -9423.81, -27716.21, 3947.18, 0.00, 0.00, 0.00, 0.000, 0.000, 0.000, 19:38:10.347, 1565912290347
60, 0.00, 0.00, -9532.13, -27722.17, 3943.27, 0.00, 0.00, 0.00, 0.000, 0.000, 0.000, 19:38:10.355, 1565912290355
61, 0.00, 0.00, -9551.88, -27718.96, 3943.27, 0.00, 0.00, 0.00, 0.000, 0.000, 0.000, 19:38:10.355, 1565912290355
62, 0.00, 0.00, -9412.72, -27706.57, 3951.45, 0.00, 0.00, 0.00, 0.000, 0.000, 0.000, 19:38:10.363, 1565912290363
63, 0.00, 0.00, -9398.89, -27707.78, 3952.30, 0.00, 0.00, 0.00, 0.000, 0.000, 0.000, 19:38:10.363, 1565912290363
64, 0.00, 0.00, -9503.65, -27717.30, 3945.98, 0.00, 0.00, 0.00, 0.000, 0.000, 0.000, 19:38:10.371, 1565912290371
65, 0.00, 0.00, -9564.07, -27719.87, 3938.51, 0.00, 0.00, 0.00, 0.000, 0.000, 0.000, 19:38:10.371, 1565912290371
66, 0.00, 0.00, -9428.79, -27702.17, 3952.21, 0.00, 0.00, 0.00, 0.000, 0.000, 0.000, 19:38:10.377, 1565912290377
67, 0.00, 0.00, -9380.56, -27693.61, 3963.41, 0.00, 0.00, 0.00, 0.014, 0.024, 0.958, 19:38:10.377, 1565912290377
68, 0.00, 0.00, -9464.13, -27700.74, 3959.75, 0.00, 0.00, 0.00, 0.000, 0.000, 0.000, 19:38:10.385, 1565912290385
69, 0.00, 0.00, -9555.84, -27712.16, 3948.21, 0.00, 0.00, 0.00, 0.000, 0.000, 0.000, 19:38:10.385, 1565912290385
70, 0.00, 0.00, -9446.16, -27701.90, 3956.66, 0.00, 0.00, 0.00, 0.000, 0.000, 0.000, 19:38:10.393, 1565912290393
71, 0.00, 0.00, -9374.41, -27694.99, 3967.03, 0.00, 0.00, 0.00, 0.000, 0.000, 0.000, 19:38:10.400, 1565912290400
72, 0.00, 0.00, -9438.63, -27700.67, 3963.32, 0.00, 0.00, 0.00, 0.000, 0.000, 0.000, 19:38:10.401, 1565912290401
73, 0.00, 0.00, -9553.52, -27710.93, 3953.42, 0.00, 0.00, 0.00, 0.000, 0.000, 0.000, 19:38:10.408, 1565912290408
74, 0.00, 0.00, -9470.79, -27700.70, 3959.88, 0.00, 0.00, 0.00, 0.000, 0.000, 0.000, 19:38:10.408, 1565912290408
75, 0.00, 0.00, -9365.54, -27690.39, 3973.31, 0.00, 0.00, 0.00, 0.000, 0.000, 0.000, 19:38:10.419, 1565912290419
76, 0.00, 0.00, -9413.95, -27694.86, 3973.85, 0.00, 0.00, 0.00, 0.010, 0.022, 0.966, 19:38:10.419, 1565912290419
77, 0.00, 0.00, -9537.76, -27707.13, 3961.15, 0.00, 0.00, 0.00, 0.000, 0.000, 0.000, 19:38:10.425, 1565912290425
78, 0.00, 0.00, -9495.60, -27704.58, 3957.13, 0.00, 0.00, 0.00, 0.000, 0.000, 0.000, 19:38:10.425, 1565912290425
79, 0.00, 0.00, -9366.03, -27688.63, 3972.06, 0.00, 0.00, 0.00, 0.000, 0.000, 0.000, 19:38:10.431, 1565912290431
80, 0.00, 0.00, -9400.85, -27696.65, 3968.57, 0.00, 0.00, 0.00, 0.000, 0.000, 0.000, 19:38:10.432, 1565912290432
81, 0.00, 0.00, -9521.64, -27708.72, 3959.90, 0.00, 0.00, 0.00, 0.000, 0.000, 0.000, 19:38:10.438, 1565912290438
82, 0.00, 0.00, -9518.40, -27711.92, 3952.41, 0.00, 0.00, 0.00, 0.000, 0.000, 0.000, 19:38:10.438, 1565912290438
83, 0.00, 0.00, -9381.47, -27695.93, 3964.08, 0.00, 0.00, 0.00, 0.000, 0.000, 0.000, 19:38:10.446, 1565912290446
84, 0.00, 0.00, -9385.88, -27694.86, 3969.04, 0.00, 0.00, 0.00, 0.000, 0.000, 0.000, 19:38:10.446, 1565912290446
85, 0.00, 0.00, -9506.13, -27707.71, 3960.42, 0.00, 0.00, 0.00, 0.000, 0.000, 0.000, 19:38:10.453, 1565912290453
86, 0.00, 0.00, -9544.13, -27712.47, 3951.88, 0.00, 0.00, 0.00, 0.014, 0.018, 0.968, 19:38:10.459, 1565912290459
87, 0.00, 0.00, -9399.33, -27696.63, 3963.21, 0.00, 0.00, 0.00, 0.000, 0.000, 0.000, 19:38:10.459, 1565912290459
88, 0.00, 0.00, -9372.80, -27694.48, 3966.32, 0.00, 0.00, 0.00, 0.000, 0.000, 0.000, 19:38:10.467, 1565912290467
89, 0.00, 0.00, -9472.98, -27704.36, 3957.29, 0.00, 0.00, 0.00, 0.000, 0.000, 0.000, 19:38:10.467, 1565912290467
90, 0.00, 0.00, -9547.86, -27709.59, 3949.96, 0.00, 0.00, 0.00, 0.000, 0.000, 0.000, 19:38:10.475, 1565912290475
91, 0.00, 0.00, -9419.99, -27698.13, 3958.40, 0.00, 0.00, 0.00, 0.000, 0.000, 0.000, 19:38:10.475, 1565912290475
92, 0.00, 0.00, -9362.74, -27690.39, 3970.47, 0.00, 0.00, 0.00, 0.000, 0.000, 0.000, 19:38:10.483, 1565912290483
93, 0.00, 0.00, -9451.81, -27700.43, 3965.00, 0.00, 0.00, 0.00, 0.000, 0.000, 0.000, 19:38:10.483, 1565912290483
94, 0.00, 0.00, -9556.69, -27707.27, 3957.29, 0.00, 0.00, 0.00, 0.000, 0.000, 0.000, 19:38:10.490, 1565912290490
95, 0.00, 0.00, -9447.55, -27696.80, 3963.66, 0.00, 0.00, 0.00, 0.000, 0.000, 0.000, 19:38:10.490, 1565912290490
96, 0.00, 0.00, -9360.40, -27692.38, 3973.09, 0.00, 0.00, 0.00, 0.012, 0.018, 0.954, 19:38:10.498, 1565912290498
97, 0.00, 0.00, -9427.79, -27701.10, 3969.89, 0.00, 0.00, 0.00, 0.000, 0.000, 0.000, 19:38:10.498, 1565912290498
98, 0.00, 0.00, -9544.33, -27709.95, 3961.62, 0.00, 0.00, 0.00, 0.000, 0.000, 0.000, 19:38:10.506, 1565912290506
99, 0.00, 0.00, -9472.04, -27701.95, 3965.65, 0.00, 0.00, 0.00, 0.000, 0.000, 0.000, 19:38:10.506, 1565912290506
100, 0.00, 0.00, -9363.84, -27695.20, 3971.41, 0.00, 0.00, 0.00, 0.000, 0.000, 0.000, 19:38:10.512, 1565912290512
101, 0.00, 0.00, -9402.53, -27691.04, 3978.86, 0.00, 0.00, 0.00, 0.000, 0.000, 0.000, 19:38:10.519, 1565912290519
102, 0.00, 0.00, -9527.12, -27702.15, 3967.08, 0.00, 0.00, 0.00, 0.000, 0.000, 0.000, 19:38:10.520, 1565912290520
103, 0.00, 0.00, -9497.93, -27703.96, 3959.16, 0.00, 0.00, 0.00, 0.000, 0.000, 0.000, 19:38:10.528, 1565912290528
104, 0.00, 0.00, -9367.24, -27691.91, 3970.61, 0.00, 0.00, 0.00, 0.000, 0.000, 0.000, 19:38:10.528, 1565912290528
105, 0.00, 0.00, -9394.26, -27696.98, 3969.51, 0.00, 0.00, 0.00, 0.000, 0.000, 0.000, 19:38:10.535, 1565912290535
106, 0.00, 0.00, -9513.77, -27707.96, 3958.81, 0.00, 0.00, 0.00, 0.008, 0.020, 0.956, 19:38:10.536, 1565912290536
107, 0.00, 0.00, -9521.44, -27706.08, 3957.78, 0.00, 0.00, 0.00, 0.000, 0.000, 0.000, 19:38:10.542, 1565912290542
108, 0.00, 0.00, -9385.63, -27696.02, 3967.41, 0.00, 0.00, 0.00, 0.000, 0.000, 0.000, 19:38:10.542, 1565912290542
109, 0.00, 0.00, -9388.94, -27700.43, 3966.81, 0.00, 0.00, 0.00, 0.000, 0.000, 0.000, 19:38:10.550, 1565912290550
110, 0.00, 0.00, -9498.62, -27708.52, 3960.68, 0.00, 0.00, 0.00, 0.000, 0.000, 0.000, 19:38:10.550, 1565912290550
111, 0.00, 0.00, -9545.96, -27711.67, 3952.91, 0.00, 0.00, 0.00, 0.000, 0.000, 0.000, 19:38:10.558, 1565912290558
112, 0.00, 0.00, -9409.61, -27696.85, 3963.77, 0.00, 0.00, 0.00, 0.000, 0.000, 0.000, 19:38:10.558, 1565912290558
113, 0.00, 0.00, -9374.92, -27694.23, 3966.61, 0.00, 0.00, 0.00, 0.000, 0.000, 0.000, 19:38:10.565, 1565912290565
114, 0.00, 0.00, -9472.92, -27707.60, 3955.77, 0.00, 0.00, 0.00, 0.000, 0.000, 0.000, 19:38:10.565, 1565912290565
115, 0.00, 0.00, -9552.93, -27710.60, 3953.08, 0.00, 0.00, 0.00, 0.000, 0.000, 0.000, 19:38:10.572, 1565912290572
116, 0.00, 0.00, -9432.30, -27700.14, 3962.16, 0.00, 0.00, 0.00, 0.012, 0.012, 0.964, 19:38:10.572, 1565912290572
117, 0.00, 0.00, -9368.98, -27691.87, 3971.48, 0.00, 0.00, 0.00, 0.000, 0.000, 0.000, 19:38:10.580, 1565912290580
118, 0.00, 0.00, -9442.87, -27697.92, 3968.28, 0.00, 0.00, 0.00, 0.000, 0.000, 0.000, 19:38:10.588, 1565912290588
119, 0.00, 0.00, -9554.19, -27714.02, 3950.83, 0.00, 0.00, 0.00, 0.000, 0.000, 0.000, 19:38:10.588, 1565912290588
120, 0.00, 0.00, -9458.50, -27701.14, 3957.60, 0.00, 0.00, 0.00, 0.000, 0.000, 0.000, 19:38:10.594, 1565912290594
121, 0.00, 0.00, -9369.87, -27693.12, 3968.10, 0.00, 0.00, 0.00, 0.000, 0.000, 0.000, 19:38:10.594, 1565912290594
122, 0.00, 0.00, -9435.68, -27707.02, 3957.91, 0.00, 0.00, 0.00, 0.000, 0.000, 0.000, 19:38:10.603, 1565912290603
123, 0.00, 0.00, -9561.90, -27722.40, 3942.80, 0.00, 0.00, 0.00, 0.000, 0.000, 0.000, 19:38:10.603, 1565912290603
124, 0.00, 0.00, -9505.37, -27719.20, 3940.19, 0.00, 0.00, 0.00, 0.000, 0.000, 0.000, 19:38:10.610, 1565912290610
125, 0.00, 0.00, -9396.02, -27716.50, 3940.77, 0.00, 0.00, 0.00, 0.000, 0.000, 0.000, 19:38:10.610, 1565912290610
126, 0.00, 0.00, -9423.74, -27712.07, 3951.30, 0.00, 0.00, 0.00, 0.006, 0.012, 0.960, 19:38:10.617, 1565912290617
127, 0.00, 0.00, -9531.83, -27708.96, 3957.69, 0.00, 0.00, 0.00, 0.000, 0.000, 0.000, 19:38:10.618, 1565912290618
128, 0.00, 0.00, -9514.96, -27707.45, 3952.77, 0.00, 0.00, 0.00, 0.000, 0.000, 0.000, 19:38:10.625, 1565912290625
129, 0.00, 0.00, -9389.03, -27701.12, 3955.12, 0.00, 0.00, 0.00, 0.000, 0.000, 0.000, 19:38:10.625, 1565912290625
130, 0.00, 0.00, -9402.60, -27705.21, 3953.98, 0.00, 0.00, 0.00, 0.000, 0.000, 0.000, 19:38:10.633, 1565912290633
131, 0.00, 0.00, -9523.09, -27719.04, 3943.47, 0.00, 0.00, 0.00, 0.000, 0.000, 0.000, 19:38:10.633, 1565912290633
132, 0.00, 0.00, -9547.01, -27720.25, 3940.86, 0.00, 0.00, 0.00, 0.000, 0.000, 0.000, 19:38:10.640, 1565912290640
133, 0.00, 0.00, -9407.71, -27703.40, 3955.57, 0.00, 0.00, 0.00, 0.000, 0.000, 0.000, 19:38:10.647, 1565912290647
134, 0.00, 0.00, -9392.85, -27703.15, 3960.01, 0.00, 0.00, 0.00, 0.000, 0.000, 0.000, 19:38:10.647, 1565912290647
135, 0.00, 0.00, -9492.92, -27710.78, 3955.41, 0.00, 0.00, 0.00, 0.010, 0.016, 0.964, 19:38:10.655, 1565912290655
136, 0.00, 0.00, -9551.46, -27713.21, 3951.32, 0.00, 0.00, 0.00, 0.000, 0.000, 0.000, 19:38:10.655, 1565912290655
137, 0.00, 0.00, -9415.05, -27695.89, 3965.40, 0.00, 0.00, 0.00, 0.000, 0.000, 0.000, 19:38:10.663, 1565912290663
138, 0.00, 0.00, -9379.42, -27696.02, 3968.06, 0.00, 0.00, 0.00, 0.000, 0.000, 0.000, 19:38:10.663, 1565912290663
139, 0.00, 0.00, -9465.61, -27702.55, 3965.67, 0.00, 0.00, 0.00, 0.000, 0.000, 0.000, 19:38:10.671, 1565912290671
140, 0.00, 0.00, -9557.34, -27711.94, 3953.71, 0.00, 0.00, 0.00, 0.000, 0.000, 0.000, 19:38:10.671, 1565912290671
141, 0.00, 0.00, -9440.39, -27697.39, 3961.56, 0.00, 0.00, 0.00, 0.000, 0.000, 0.000, 19:38:10.678, 1565912290678
142, 0.00, 0.00, -9368.53, -27692.56, 3967.52, 0.00, 0.00, 0.00, 0.000, 0.000, 0.000, 19:38:10.678, 1565912290678
143, 0.00, 0.00, -9444.44, -27701.12, 3963.79, 0.00, 0.00, 0.00, 0.000, 0.000, 0.000, 19:38:10.686, 1565912290686
144, 0.00, 0.00, -9555.06, -27706.19, 3959.90, 0.00, 0.00, 0.00, 0.000, 0.000, 0.000, 19:38:10.686, 1565912290686
145, 0.00, 0.00, -9463.93, -27694.46, 3968.28, 0.00, 0.00, 0.00, 0.006, 0.024, 0.964, 19:38:10.693, 1565912290693
146, 0.00, 0.00, -9363.06, -27682.28, 3981.94, 0.00, 0.00, 0.00, 0.000, 0.000, 0.000, 19:38:10.693, 1565912290693
147, 0.00, 0.00, -9419.18, -27692.67, 3976.02, 0.00, 0.00, 0.00, 0.000, 0.000, 0.000, 19:38:10.700, 1565912290700
148, 0.00, 0.00, -9543.03, -27705.88, 3963.30, 0.00, 0.00, 0.00, 0.000, 0.000, 0.000, 19:38:10.707, 1565912290707
149, 0.00, 0.00, -9497.01, -27699.89, 3966.32, 0.00, 0.00, 0.00, 0.000, 0.000, 0.000, 19:38:10.707, 1565912290707
150, 0.00, 0.00, -9375.57, -27686.66, 3981.16, 0.00, 0.00, 0.00, 0.000, 0.000, 0.000, 19:38:10.715, 1565912290715
151, 0.00, 0.00, -9405.86, -27697.86, 3972.37, 0.00, 0.00, 0.00, 0.000, 0.000, 0.000, 19:38:10.715, 1565912290715
152, 0.00, 0.00, -9531.83, -27713.23, 3960.42, 0.00, 0.00, 0.00, 0.000, 0.000, 0.000, 19:38:10.723, 1565912290723
153, 0.00, 0.00, -9526.80, -27712.45, 3958.76, 0.00, 0.00, 0.00, 0.000, 0.000, 0.000, 19:38:10.723, 1565912290723
154, 0.00, 0.00, -9393.68, -27701.30, 3967.59, 0.00, 0.00, 0.00, 0.000, 0.000, 0.000, 19:38:10.730, 1565912290730
155, 0.00, 0.00, -9404.45, -27706.80, 3964.39, 0.00, 0.00, 0.00, 0.006, 0.018, 0.964, 19:38:10.730, 1565912290730
156, 0.00, 0.00, -9524.66, -27724.19, 3946.83, 0.00, 0.00, 0.00, 0.000, 0.000, 0.000, 19:38:10.738, 1565912290738
157, 0.00, 0.00, -9559.66, -27725.71, 3940.41, 0.00, 0.00, 0.00, 0.000, 0.000, 0.000, 19:38:10.738, 1565912290738
158, 0.00, 0.00, -9419.18, -27710.11, 3951.43, 0.00, 0.00, 0.00, 0.000, 0.000, 0.000, 19:38:10.747, 1565912290747
159, 0.00, 0.00, -9410.58, -27722.38, 3941.19, 0.00, 0.00, 0.00, 0.000, 0.000, 0.000, 19:38:10.748, 1565912290748
160, 0.00, 0.00, -9513.06, -27734.63, 3929.68, 0.00, 0.00, 0.00, 0.000, 0.000, 0.000, 19:38:10.753, 1565912290753
161, 0.00, 0.00, -9585.63, -27744.33, 3920.14, 0.00, 0.00, 0.00, 0.000, 0.000, 0.000, 19:38:10.754, 1565912290754
162, 0.00, 0.00, -9457.51, -27730.18, 3931.74, 0.00, 0.00, 0.00, 0.000, 0.000, 0.000, 19:38:10.760, 1565912290760
163, 0.00, 0.00, -9400.79, -27718.11, 3945.55, 0.00, 0.00, 0.00, 0.000, 0.000, 0.000, 19:38:10.767, 1565912290767
164, 0.00, 0.00, -9480.34, -27726.78, 3938.60, 0.00, 0.00, 0.00, 0.000, 0.000, 0.000, 19:38:10.767, 1565912290767
165, 0.00, 0.00, -9584.90, -27741.35, 3923.42, 0.00, 0.00, 0.00, 0.004, 0.016, 0.972, 19:38:10.777, 1565912290777
166, 0.00, 0.00, -9479.51, -27728.52, 3930.38, 0.00, 0.00, 0.00, 0.000, 0.000, 0.000, 19:38:10.777, 1565912290777
167, 0.00, 0.00, -9396.36, -27715.38, 3943.61, 0.00, 0.00, 0.00, 0.000, 0.000, 0.000, 19:38:10.782, 1565912290782
168, 0.00, 0.00, -9461.31, -27723.63, 3940.63, 0.00, 0.00, 0.00, 0.000, 0.000, 0.000, 19:38:10.782, 1565912290782
169, 0.00, 0.00, -9580.11, -27734.92, 3931.07, 0.00, 0.00, 0.00, 0.000, 0.000, 0.000, 19:38:10.790, 1565912290790
170, 0.00, 0.00, -9499.00, -27723.25, 3936.90, 0.00, 0.00, 0.00, 0.000, 0.000, 0.000, 19:38:10.790, 1565912290790
171, 0.00, 0.00, -9389.54, -27710.71, 3949.46, 0.00, 0.00, 0.00, 0.000, 0.000, 0.000, 19:38:10.798, 1565912290798
172, 0.00, 0.00, -9433.64, -27714.62, 3951.01, 0.00, 0.00, 0.00, 0.000, 0.000, 0.000, 19:38:10.798, 1565912290798
173, 0.00, 0.00, -9551.06, -27720.43, 3947.74, 0.00, 0.00, 0.00, 0.000, 0.000, 0.000, 19:38:10.806, 1565912290806
174, 0.00, 0.00, -9514.38, -27712.18, 3953.26, 0.00, 0.00, 0.00, 0.000, 0.000, 0.000, 19:38:10.806, 1565912290806
175, 0.00, 0.00, -9396.47, -27705.03, 3962.36, 0.00, 0.00, 0.00, 0.004, 0.018, 0.972, 19:38:10.813, 1565912290813
176, 0.00, 0.00, -9415.83, -27707.60, 3963.46, 0.00, 0.00, 0.00, 0.000, 0.000, 0.000, 19:38:10.813, 1565912290813
177, 0.00, 0.00, -9535.28, -27717.41, 3952.82, 0.00, 0.00, 0.00, 0.000, 0.000, 0.000, 19:38:10.820, 1565912290820
178, 0.00, 0.00, -9543.39, -27717.37, 3948.01, 0.00, 0.00, 0.00, 0.000, 0.000, 0.000, 19:38:10.820, 1565912290820
179, 0.00, 0.00, -9401.14, -27699.11, 3965.74, 0.00, 0.00, 0.00, 0.000, 0.000, 0.000, 19:38:10.827, 1565912290827
180, 0.00, 0.00, -9398.28, -27702.62, 3968.04, 0.00, 0.00, 0.00, 0.000, 0.000, 0.000, 19:38:10.836, 1565912290836
181, 0.00, 0.00, -9509.08, -27713.39, 3958.63, 0.00, 0.00, 0.00, 0.000, 0.000, 0.000, 19:38:10.836, 1565912290836
182, 0.00, 0.00, -9553.63, -27713.59, 3955.16, 0.00, 0.00, 0.00, 0.000, 0.000, 0.000, 19:38:10.842, 1565912290842
183, 0.00, 0.00, -9419.61, -27700.56, 3965.53, 0.00, 0.00, 0.00, 0.000, 0.000, 0.000, 19:38:10.842, 1565912290842
184, 0.00, 0.00, -9390.57, -27698.55, 3971.77, 0.00, 0.00, 0.00, 0.000, 0.000, 0.000, 19:38:10.850, 1565912290850
185, 0.00, 0.00, -9484.52, -27711.07, 3962.07, 0.00, 0.00, 0.00, 0.006, 0.018, 0.968, 19:38:10.850, 1565912290850
186, 0.00, 0.00, -9559.26, -27714.62, 3956.42, 0.00, 0.00, 0.00, 0.000, 0.000, 0.000, 19:38:10.858, 1565912290858
187, 0.00, 0.00, -9437.17, -27703.94, 3961.04, 0.00, 0.00, 0.00, 0.000, 0.000, 0.000, 19:38:10.858, 1565912290858
188, 0.00, 0.00, -9378.14, -27697.07, 3970.88, 0.00, 0.00, 0.00, 0.000, 0.000, 0.000, 19:38:10.865, 1565912290865
189, 0.00, 0.00, -9455.17, -27706.97, 3964.62, 0.00, 0.00, 0.00, 0.000, 0.000, 0.000, 19:38:10.865, 1565912290865
190, 0.00, 0.00, -9562.79, -27718.62, 3952.93, 0.00, 0.00, 0.00, 0.000, 0.000, 0.000, 19:38:10.873, 1565912290873
191, 0.00, 0.00, -9468.67, -27709.03, 3959.88, 0.00, 0.00, 0.00, 0.000, 0.000, 0.000, 19:38:10.873, 1565912290873
192, 0.00, 0.00, -9380.94, -27699.82, 3969.67, 0.00, 0.00, 0.00, 0.000, 0.000, 0.000, 19:38:10.881, 1565912290881
193, 0.00, 0.00, -9435.03, -27705.54, 3966.63, 0.00, 0.00, 0.00, 0.000, 0.000, 0.000, 19:38:10.881, 1565912290881
194, 0.00, 0.00, -9559.04, -27722.80, 3950.67, 0.00, 0.00, 0.00, 0.000, 0.000, 0.000, 19:38:10.888, 1565912290888
195, 0.00, 0.00, -9500.09, -27719.16, 3950.38, 0.00, 0.00, 0.00, 0.006, 0.020, 0.966, 19:38:10.895, 1565912290895
196, 0.00, 0.00, -9381.25, -27698.30, 3971.12, 0.00, 0.00, 0.00, 0.000, 0.000, 0.000, 19:38:10.895, 1565912290895
197, 0.00, 0.00, -9417.04, -27700.74, 3972.37, 0.00, 0.00, 0.00, 0.000, 0.000, 0.000, 19:38:10.902, 1565912290902
198, 0.00, 0.00, -9537.76, -27716.99, 3957.69, 0.00, 0.00, 0.00, 0.000, 0.000, 0.000, 19:38:10.903, 1565912290903
199, 0.00, 0.00, -9512.83, -27710.24, 3960.66, 0.00, 0.00, 0.00, 0.000, 0.000, 0.000, 19:38:10.910, 1565912290910
200, 0.00, 0.00, -9381.94, -27696.65, 3972.49, 0.00, 0.00, 0.00, 0.000, 0.000, 0.000, 19:38:10.910, 1565912290910
201, 0.00, 0.00, -9394.64, -27694.84, 3976.80, 0.00, 0.00, 0.00, 0.000, 0.000, 0.000, 19:38:10.917, 1565912290917
202, 0.00, 0.00, -9517.82, -27712.32, 3960.35, 0.00, 0.00, 0.00, 0.000, 0.000, 0.000, 19:38:10.918, 1565912290918
203, 0.00, 0.00, -9543.12, -27720.28, 3950.13, 0.00, 0.00, 0.00, 0.000, 0.000, 0.000, 19:38:10.927, 1565912290927
204, 0.00, 0.00, -9405.93, -27703.47, 3964.51, 0.00, 0.00, 0.00, 0.010, 0.018, 0.966, 19:38:10.928, 1565912290928
205, 0.00, 0.00, -9391.62, -27698.93, 3971.55, 0.00, 0.00, 0.00, 0.000, 0.000, 0.000, 19:38:10.933, 1565912290933
206, 0.00, 0.00, -9495.18, -27711.67, 3964.10, 0.00, 0.00, 0.00, 0.000, 0.000, 0.000, 19:38:10.933, 1565912290933
207, 0.00, 0.00, -9555.26, -27720.95, 3954.90, 0.00, 0.00, 0.00, 0.000, 0.000, 0.000, 19:38:10.941, 1565912290941
208, 0.00, 0.00, -9424.81, -27709.10, 3964.15, 0.00, 0.00, 0.00, 0.000, 0.000, 0.000, 19:38:10.941, 1565912290941
209, 0.00, 0.00, -9380.83, -27699.31, 3976.98, 0.00, 0.00, 0.00, 0.000, 0.000, 0.000, 19:38:10.947, 1565912290947
210, 0.00, 0.00, -9468.96, -27704.27, 3976.06, 0.00, 0.00, 0.00, 0.000, 0.000, 0.000, 19:38:10.955, 1565912290955
211, 0.00, 0.00, -9556.85, -27709.88, 3966.00, 0.00, 0.00, 0.00, 0.000, 0.000, 0.000, 19:38:10.955, 1565912290955
212, 0.00, 0.00, -9438.43, -27697.48, 3970.90, 0.00, 0.00, 0.00, 0.000, 0.000, 0.000, 19:38:10.963, 1565912290963
213, 0.00, 0.00, -9366.97, -27688.92, 3980.18, 0.00, 0.00, 0.00, 0.000, 0.000, 0.000, 19:38:10.963, 1565912290963
214, 0.00, 0.00, -9442.58, -27698.97, 3973.67, 0.00, 0.00, 0.00, 0.008, 0.020, 0.962, 19:38:10.971, 1565912290971
215, 0.00, 0.00, -9553.56, -27710.75, 3962.32, 0.00, 0.00, 0.00, 0.000, 0.000, 0.000, 19:38:10.971, 1565912290971
216, 0.00, 0.00, -9466.21, -27702.33, 3965.83, 0.00, 0.00, 0.00, 0.000, 0.000, 0.000, 19:38:10.977, 1565912290977
217, 0.00, 0.00, -9366.52, -27688.42, 3979.53, 0.00, 0.00, 0.00, 0.000, 0.000, 0.000, 19:38:10.978, 1565912290978
218, 0.00, 0.00, -9420.08, -27692.94, 3977.81, 0.00, 0.00, 0.00, 0.000, 0.000, 0.000, 19:38:10.985, 1565912290985
219, 0.00, 0.00, -9550.39, -27713.41, 3958.29, 0.00, 0.00, 0.00, 0.000, 0.000, 0.000, 19:38:10.986, 1565912290986
220, 0.00, 0.00, -9499.07, -27710.42, 3957.02, 0.00, 0.00, 0.00, 0.000, 0.000, 0.000, 19:38:10.994, 1565912290994
221, 0.00, 0.00, -9375.26, -27696.18, 3971.52, 0.00, 0.00, 0.00, 0.000, 0.000, 0.000, 19:38:10.994, 1565912290994
222, 0.00, 0.00, -9409.82, -27699.96, 3972.93, 0.00, 0.00, 0.00, 0.000, 0.000, 0.000, 19:38:11.001, 1565912291001
223, 0.00, 0.00, -9525.69, -27708.03, 3968.26, 0.00, 0.00, 0.00, 0.000, 0.000, 0.000, 19:38:11.001, 1565912291001
224, 0.00, 0.00, -9515.34, -27707.36, 3963.70, 0.00, 0.00, 0.00, 0.010, 0.014, 0.970, 19:38:11.007, 1565912291007
225, 0.00, 0.00, -9382.35, -27690.84, 3977.72, 0.00, 0.00, 0.00, 0.000, 0.000, 0.000, 19:38:11.015, 1565912291015
226, 0.00, 0.00, -9388.49, -27692.36, 3978.90, 0.00, 0.00, 0.00, 0.000, 0.000, 0.000, 19:38:11.015, 1565912291015
227, 0.00, 0.00, -9504.54, -27705.93, 3966.12, 0.00, 0.00, 0.00, 0.000, 0.000, 0.000, 19:38:11.023, 1565912291023
228, 0.00, 0.00, -9535.37, -27709.81, 3957.78, 0.00, 0.00, 0.00, 0.000, 0.000, 0.000, 19:38:11.023, 1565912291023
229, 0.00, 0.00, -9399.56, -27697.43, 3968.64, 0.00, 0.00, 0.00, 0.000, 0.000, 0.000, 19:38:11.030, 1565912291030
230, 0.00, 0.00, -9381.85, -27696.52, 3972.33, 0.00, 0.00, 0.00, 0.000, 0.000, 0.000, 19:38:11.030, 1565912291030
231, 0.00, 0.00, -9483.33, -27708.32, 3964.28, 0.00, 0.00, 0.00, 0.000, 0.000, 0.000, 19:38:11.038, 1565912291038
232, 0.00, 0.00, -9556.67, -27717.59, 3955.07, 0.00, 0.00, 0.00, 0.000, 0.000, 0.000, 19:38:11.038, 1565912291038
233, 0.00, 0.00, -9424.68, -27696.25, 3973.00, 0.00, 0.00, 0.00, 0.000, 0.000, 0.000, 19:38:11.045, 1565912291045
234, 0.00, 0.00, -9375.64, -27690.03, 3981.25, 0.00, 0.00, 0.00, 0.004, 0.018, 0.970, 19:38:11.046, 1565912291046
235, 0.00, 0.00, -9460.42, -27701.97, 3971.44, 0.00, 0.00, 0.00, 0.000, 0.000, 0.000, 19:38:11.053, 1565912291053
236, 0.00, 0.00, -9555.46, -27714.35, 3956.91, 0.00, 0.00, 0.00, 0.000, 0.000, 0.000, 19:38:11.054, 1565912291054
237, 0.00, 0.00, -9449.04, -27707.24, 3960.59, 0.00, 0.00, 0.00, 0.000, 0.000, 0.000, 19:38:11.060, 1565912291060
238, 0.00, 0.00, -9374.52, -27698.82, 3970.18, 0.00, 0.00, 0.00, 0.000, 0.000, 0.000, 19:38:11.060, 1565912291060
239, 0.00, 0.00, -9438.27, -27702.68, 3969.38, 0.00, 0.00, 0.00, 0.000, 0.000, 0.000, 19:38:11.067, 1565912291067
240, 0.00, 0.00, -9548.91, -27712.90, 3957.78, 0.00, 0.00, 0.00, 0.000, 0.000, 0.000, 19:38:11.067, 1565912291067
241, 0.00, 0.00, -9465.83, -27702.68, 3963.03, 0.00, 0.00, 0.00, 0.000, 0.000, 0.000, 19:38:11.075, 1565912291075
242, 0.00, 0.00, -9369.20, -27698.10, 3968.62, 0.00, 0.00, 0.00, 0.000, 0.000, 0.000, 19:38:11.083, 1565912291083
243, 0.00, 0.00, -9420.70, -27703.85, 3967.61, 0.00, 0.00, 0.00, 0.000, 0.000, 0.000, 19:38:11.083, 1565912291083
244, 0.00, 0.00, -9537.42, -27711.60, 3961.47, 0.00, 0.00, 0.00, 0.002, 0.016, 0.974, 19:38:11.090, 1565912291090
245, 0.00, 0.00, -9497.01, -27709.37, 3958.67, 0.00, 0.00, 0.00, 0.000, 0.000, 0.000, 19:38:11.090, 1565912291090
246, 0.00, 0.00, -9377.00, -27700.56, 3967.08, 0.00, 0.00, 0.00, 0.000, 0.000, 0.000, 19:38:11.098, 1565912291098
247, 0.00, 0.00, -9402.57, -27706.60, 3966.05, 0.00, 0.00, 0.00, 0.000, 0.000, 0.000, 19:38:11.098, 1565912291098
248, 0.00, 0.00, -9524.91, -27717.93, 3955.99, 0.00, 0.00, 0.00, 0.000, 0.000, 0.000, 19:38:11.106, 1565912291106
249, 0.00, 0.00, -9529.33, -27717.41, 3952.28, 0.00, 0.00, 0.00, 0.000, 0.000, 0.000, 19:38:11.106, 1565912291106
250, 0.00, 0.00, -9393.88, -27702.86, 3966.03, 0.00, 0.00, 0.00, 0.000, 0.000, 0.000, 19:38:11.112, 1565912291112
251, 0.00, 0.00, -9385.74, -27695.26, 3975.50, 0.00, 0.00, 0.00, 0.000, 0.000, 0.000, 19:38:11.113, 1565912291113
252, 0.00, 0.00, -9496.94, -27704.79, 3970.81, 0.00, 0.00, 0.00, 0.000, 0.000, 0.000, 19:38:11.120, 1565912291120
253, 0.00, 0.00, -9543.32, -27713.93, 3958.58, 0.00, 0.00, 0.00, 0.000, 0.000, 0.000, 19:38:11.120, 1565912291120
254, 0.00, 0.00, -9406.64, -27696.72, 3972.49, 0.00, 0.00, 0.00, 0.010, 0.018, 0.972, 19:38:11.128, 1565912291128
255, 0.00, 0.00, -9373.52, -27692.71, 3980.38, 0.00, 0.00, 0.00, 0.000, 0.000, 0.000, 19:38:11.129, 1565912291129
0, 0.00, 0.00, -9470.30, -27704.16, 3974.83, 0.00, 0.00, 0.00, 0.000, 0.000, 0.000, 19:38:11.136, 1565912291136
1, 0.00, 0.00, -9546.54, -27710.44, 3968.62, 0.00, 0.00, 0.00, 0.000, 0.000, 0.000, 19:38:11.142, 1565912291142
2, 0.00, 0.00, -9420.25, -27692.02, 3983.33, 0.00, 0.00, 0.00, 0.000, 0.000, 0.000, 19:38:11.142, 1565912291142
3, 0.00, 0.00, -9355.68, -27685.90, 3989.50, 0.00, 0.00, 0.00, 0.000, 0.000, 0.000, 19:38:11.150, 1565912291150
4, 0.00, 0.00, -9439.41, -27698.48, 3978.12, 0.00, 0.00, 0.00, 0.000, 0.000, 0.000, 19:38:11.150, 1565912291150
5, 0.00, 0.00, -9551.71, -27715.87, 3960.24, 0.00, 0.00, 0.00, 0.000, 0.000, 0.000, 19:38:11.160, 1565912291160
6, 0.00, 0.00, -9449.85, -27701.88, 3969.63, 0.00, 0.00, 0.00, 0.000, 0.000, 0.000, 19:38:11.160, 1565912291160
7, 0.00, 0.00, -9364.98, -27694.17, 3977.38, 0.00, 0.00, 0.00, 0.010, 0.018, 0.968, 19:38:11.166, 1565912291166
8, 0.00, 0.00, -9430.04, -27701.10, 3972.55, 0.00, 0.00, 0.00, 0.000, 0.000, 0.000, 19:38:11.166, 1565912291166
9, 0.00, 0.00, -9546.92, -27709.57, 3963.97, 0.00, 0.00, 0.00, 0.000, 0.000, 0.000, 19:38:11.174, 1565912291174
10, 0.00, 0.00, -9479.20, -27701.54, 3966.81, 0.00, 0.00, 0.00, 0.000, 0.000, 0.000, 19:38:11.174, 1565912291174
11, 0.00, 0.00, -9367.68, -27692.00, 3980.55, 0.00, 0.00, 0.00, 0.000, 0.000, 0.000, 19:38:11.181, 1565912291181
12, 0.00, 0.00, -9405.86, -27693.38, 3983.51, 0.00, 0.00, 0.00, 0.000, 0.000, 0.000, 19:38:11.181, 1565912291181
13, 0.00, 0.00, -9523.76, -27698.77, 3978.07, 0.00, 0.00, 0.00, 0.000, 0.000, 0.000, 19:38:11.189, 1565912291189
14, 0.00, 0.00, -9498.13, -27693.77, 3979.88, 0.00, 0.00, 0.00, 0.000, 0.000, 0.000, 19:38:11.189, 1565912291189
15, 0.00, 0.00, -9368.31, -27684.04, 3989.70, 0.00, 0.00, 0.00, 0.000, 0.000, 0.000, 19:38:11.195, 1565912291195
16, 0.00, 0.00, -9387.11, -27693.32, 3984.31, 0.00, 0.00, 0.00, 0.000, 0.000, 0.000, 19:38:11.203, 1565912291203
17, 0.00, 0.00, -9512.12, -27709.32, 3970.72, 0.00, 0.00, 0.00, 0.008, 0.016, 0.964, 19:38:11.203, 1565912291203
18, 0.00, 0.00, -9529.87, -27712.52, 3962.70, 0.00, 0.00, 0.00, 0.000, 0.000, 0.000, 19:38:11.211, 1565912291211
19, 0.00, 0.00, -9388.25, -27692.76, 3979.08, 0.00, 0.00, 0.00, 0.000, 0.000, 0.000, 19:38:11.211, 1565912291211
20, 0.00, 0.00, -9383.98, -27697.86, 3977.78, 0.00, 0.00, 0.00, 0.000, 0.000, 0.000, 19:38:11.219, 1565912291219
21, 0.00, 0.00, -9493.99, -27711.49, 3967.03, 0.00, 0.00, 0.00, 0.000, 0.000, 0.000, 19:38:11.219, 1565912291219
22, 0.00, 0.00, -9546.68, -27717.88, 3957.80, 0.00, 0.00, 0.00, 0.000, 0.000, 0.000, 19:38:11.225, 1565912291225
23, 0.00, 0.00, -9414.22, -27705.46, 3966.16, 0.00, 0.00, 0.00, 0.000, 0.000, 0.000, 19:38:11.225, 1565912291225
24, 0.00, 0.00, -9380.76, -27707.36, 3967.46, 0.00, 0.00, 0.00, 0.000, 0.000, 0.000, 19:38:11.233, 1565912291233
25, 0.00, 0.00, -9469.05, -27711.94, 3965.40, 0.00, 0.00, 0.00, 0.000, 0.000, 0.000, 19:38:11.234, 1565912291234
26, 0.00, 0.00, -9552.26, -27716.43, 3959.48, 0.00, 0.00, 0.00, 0.000, 0.000, 0.000, 19:38:11.241, 1565912291241
27, 0.00, 0.00, -9431.70, -27704.03, 3967.90, 0.00, 0.00, 0.00, 0.008, 0.016, 0.960, 19:38:11.242, 1565912291242
28, 0.00, 0.00, -9368.60, -27702.44, 3974.10, 0.00, 0.00, 0.00, 0.000, 0.000, 0.000, 19:38:11.248, 1565912291248
29, 0.00, 0.00, -9442.49, -27709.66, 3971.88, 0.00, 0.00, 0.00, 0.000, 0.000, 0.000, 19:38:11.249, 1565912291249
30, 0.00, 0.00, -9553.83, -27723.20, 3956.82, 0.00, 0.00, 0.00, 0.000, 0.000, 0.000, 19:38:11.255, 1565912291255
31, 0.00, 0.00, -9462.92, -27708.96, 3965.38, 0.00, 0.00, 0.00, 0.000, 0.000, 0.000, 19:38:11.263, 1565912291263
32, 0.00, 0.00, -9365.69, -27694.08, 3983.42, 0.00, 0.00, 0.00, 0.000, 0.000, 0.000, 19:38:11.263, 1565912291263
33, 0.00, 0.00, -9420.79, -27706.10, 3976.58, 0.00, 0.00, 0.00, 0.000, 0.000, 0.000, 19:38:11.271, 1565912291271
34, 0.00, 0.00, -9542.72, -27720.14, 3962.72, 0.00, 0.00, 0.00, 0.000, 0.000, 0.000, 19:38:11.271, 1565912291271
35, 0.00, 0.00, -9485.10, -27714.11, 3960.95, 0.00, 0.00, 0.00, 0.000, 0.000, 0.000, 19:38:11.277, 1565912291277
36, 0.00, 0.00, -9366.52, -27700.52, 3974.36, 0.00, 0.00, 0.00, 0.000, 0.000, 0.000, 19:38:11.278, 1565912291278
37, 0.00, 0.00, -9405.70, -27707.15, 3973.83, 0.00, 0.00, 0.00, 0.008, 0.016, 0.958, 19:38:11.285, 1565912291285
38, 0.00, 0.00, -9532.66, -27722.13, 3961.04, 0.00, 0.00, 0.00, 0.000, 0.000, 0.000, 19:38:11.286, 1565912291286
39, 0.00, 0.00, -9516.39, -27720.88, 3955.99, 0.00, 0.00, 0.00, 0.000, 0.000, 0.000, 19:38:11.293, 1565912291293
40, 0.00, 0.00, -9378.48, -27704.07, 3972.44, 0.00, 0.00, 0.00, 0.000, 0.000, 0.000, 19:38:11.293, 1565912291293
41, 0.00, 0.00, -9384.87, -27701.39, 3980.42, 0.00, 0.00, 0.00, 0.000, 0.000, 0.000, 19:38:11.300, 1565912291300
42, 0.00, 0.00, -9503.69, -27713.70, 3970.14, 0.00, 0.00, 0.00, 0.000, 0.000, 0.000, 19:38:11.301, 1565912291301
43, 0.00, 0.00, -9531.77, -27715.25, 3963.48, 0.00, 0.00, 0.00, 0.000, 0.000, 0.000, 19:38:11.308, 1565912291308
44, 0.00, 0.00, -9393.23, -27699.38, 3974.68, 0.00, 0.00, 0.00, 0.000, 0.000, 0.000, 19:38:11.309, 1565912291309
45, 0.00, 0.00, -9383.11, -27700.45, 3976.15, 0.00, 0.00, 0.00, 0.000, 0.000, 0.000, 19:38:11.315, 1565912291315
46, 0.00, 0.00, -9492.92, -27719.54, 3958.40, 0.00, 0.00, 0.00, 0.000, 0.000, 0.000, 19:38:11.315, 1565912291315
47, 0.00, 0.00, -9551.28, -27719.72, 3954.83, 0.00, 0.00, 0.00, 0.004, 0.010, 0.966, 19:38:11.323, 1565912291323
48, 0.00, 0.00, -9406.15, -27695.20, 3974.39, 0.00, 0.00, 0.00, 0.000, 0.000, 0.000, 19:38:11.330, 1565912291330
49, 0.00, 0.00, -9368.26, -27696.27, 3977.25, 0.00, 0.00, 0.00, 0.000, 0.000, 0.000, 19:38:11.330, 1565912291330
50, 0.00, 0.00, -9460.87, -27711.22, 3967.05, 0.00, 0.00, 0.00, 0.000, 0.000, 0.000, 19:38:11.337, 1565912291337
51, 0.00, 0.00, -9555.10, -27727.12, 3953.17, 0.00, 0.00, 0.00, 0.000, 0.000, 0.000, 19:38:11.338, 1565912291338
52, 0.00, 0.00, -9442.74, -27714.06, 3964.64, 0.00, 0.00, 0.00, 0.000, 0.000, 0.000, 19:38:11.346, 1565912291346
53, 0.00, 0.00, -9372.18, -27710.82, 3967.05, 0.00, 0.00, 0.00, 0.000, 0.000, 0.000, 19:38:11.346, 1565912291346
54, 0.00, 0.00, -9446.45, -27720.63, 3960.30, 0.00, 0.00, 0.00, 0.000, 0.000, 0.000, 19:38:11.354, 1565912291354
55, 0.00, 0.00, -9555.35, -27728.21, 3954.67, 0.00, 0.00, 0.00, 0.000, 0.000, 0.000, 19:38:11.354, 1565912291354
56, 0.00, 0.00, -9472.24, -27719.38, 3960.86, 0.00, 0.00, 0.00, 0.000, 0.000, 0.000, 19:38:11.360, 1565912291360
57, 0.00, 0.00, -9376.87, -27709.99, 3972.11, 0.00, 0.00, 0.00, 0.006, 0.016, 0.968, 19:38:11.360, 1565912291360
58, 0.00, 0.00, -9423.81, -27716.25, 3969.13, 0.00, 0.00, 0.00, 0.000, 0.000, 0.000, 19:38:11.368, 1565912291368
59, 0.00, 0.00, -9544.82, -27723.63, 3962.27, 0.00, 0.00, 0.00, 0.000, 0.000, 0.000, 19:38:11.369, 1565912291369
60, 0.00, 0.00, -9497.57, -27714.64, 3965.78, 0.00, 0.00, 0.00, 0.000, 0.000, 0.000, 19:38:11.376, 1565912291376
61, 0.00, 0.00, -9377.32, -27707.56, 3972.15, 0.00, 0.00, 0.00, 0.000, 0.000, 0.000, 19:38:11.376, 1565912291376
62, 0.00, 0.00, -9405.17, -27713.32, 3970.85, 0.00, 0.00, 0.00, 0.000, 0.000, 0.000, 19:38:11.383, 1565912291383
63, 0.00, 0.00, -9522.42, -27721.53, 3964.28, 0.00, 0.00, 0.00, 0.000, 0.000, 0.000, 19:38:11.390, 1565912291390
64, 0.00, 0.00, -9524.23, -27723.90, 3956.59, 0.00, 0.00, 0.00, 0.000, 0.000, 0.000, 19:38:11.390, 1565912291390
65, 0.00, 0.00, -9391.80, -27715.36, 3964.15, 0.00, 0.00, 0.00, 0.000, 0.000, 0.000, 19:38:11.398, 1565912291398
66, 0.00, 0.00, -9394.53, -27714.26, 3971.03, 0.00, 0.00, 0.00, 0.000, 0.000, 0.000, 19:38:11.398, 1565912291398
67, 0.00, 0.00, -9506.91, -27723.40, 3964.17, 0.00, 0.00, 0.00, 0.012, 0.010, 0.964, 19:38:11.406, 1565912291406
68, 0.00, 0.00, -9540.93, -27722.91, 3959.23, 0.00, 0.00, 0.00, 0.000, 0.000, 0.000, 19:38:11.406, 1565912291406
69, 0.00, 0.00, -9405.59, -27706.66, 3969.71, 0.00, 0.00, 0.00, 0.000, 0.000, 0.000, 19:38:11.412, 1565912291412
70, 0.00, 0.00, -9384.31, -27704.20, 3976.02, 0.00, 0.00, 0.00, 0.000, 0.000, 0.000, 19:38:11.413, 1565912291413
71, 0.00, 0.00, -9482.50, -27712.94, 3971.61, 0.00, 0.00, 0.00, 0.000, 0.000, 0.000, 19:38:11.421, 1565912291421
72, 0.00, 0.00, -9557.87, -27725.04, 3957.91, 0.00, 0.00, 0.00, 0.000, 0.000, 0.000, 19:38:11.421, 1565912291421
73, 0.00, 0.00, -9430.18, -27709.30, 3970.25, 0.00, 0.00, 0.00, 0.000, 0.000, 0.000, 19:38:11.428, 1565912291428
74, 0.00, 0.00, -9370.66, -27698.75, 3982.28, 0.00, 0.00, 0.00, 0.000, 0.000, 0.000, 19:38:11.429, 1565912291429
75, 0.00, 0.00, -9453.20, -27710.82, 3971.32, 0.00, 0.00, 0.00, 0.000, 0.000, 0.000, 19:38:11.437, 1565912291437
76, 0.00, 0.00, -9555.95, -27722.85, 3957.55, 0.00, 0.00, 0.00, 0.010, 0.018, 0.966, 19:38:11.437, 1565912291437
77, 0.00, 0.00, -9449.07, -27706.89, 3968.06, 0.00, 0.00, 0.00, 0.000, 0.000, 0.000, 19:38:11.443, 1565912291443
78, 0.00, 0.00, -9368.24, -27702.24, 3974.05, 0.00, 0.00, 0.00, 0.000, 0.000, 0.000, 19:38:11.450, 1565912291450
79, 0.00, 0.00, -9431.56, -27709.01, 3970.56, 0.00, 0.00, 0.00, 0.000, 0.000, 0.000, 19:38:11.451, 1565912291451
80, 0.00, 0.00, -9543.97, -27713.84, 3966.05, 0.00, 0.00, 0.00, 0.000, 0.000, 0.000, 19:38:11.458, 1565912291458
81, 0.00, 0.00, -9472.04, -27706.60, 3968.64, 0.00, 0.00, 0.00, 0.000, 0.000, 0.000, 19:38:11.459, 1565912291459
82, 0.00, 0.00, -9365.34, -27698.19, 3978.23, 0.00, 0.00, 0.00, 0.000, 0.000, 0.000, 19:38:11.465, 1565912291465
83, 0.00, 0.00, -9399.80, -27697.32, 3984.29, 0.00, 0.00, 0.00, 0.000, 0.000, 0.000, 19:38:11.465, 1565912291465
84, 0.00, 0.00, -9526.07, -27711.36, 3972.49, 0.00, 0.00, 0.00, 0.000, 0.000, 0.000, 19:38:11.473, 1565912291473
85, 0.00, 0.00, -9499.83, -27713.46, 3966.63, 0.00, 0.00, 0.00, 0.000, 0.000, 0.000, 19:38:11.473, 1565912291473
86, 0.00, 0.00, -9377.70, -27705.46, 3973.45, 0.00, 0.00, 0.00, 0.010, 0.014, 0.970, 19:38:11.481, 1565912291481
87, 0.00, 0.00, -9396.49, -27704.16, 3978.14, 0.00, 0.00, 0.00, 0.000, 0.000, 0.000, 19:38:11.481, 1565912291481
88, 0.00, 0.00, -9513.71, -27711.98, 3972.64, 0.00, 0.00, 0.00, 0.000, 0.000, 0.000, 19:38:11.489, 1565912291489
89, 0.00, 0.00, -9524.15, -27712.97, 3965.33, 0.00, 0.00, 0.00, 0.000, 0.000, 0.000, 19:38:11.489, 1565912291489
90, 0.00, 0.00, -9386.64, -27702.17, 3970.54, 0.00, 0.00, 0.00, 0.000, 0.000, 0.000, 19:38:11.496, 1565912291496
91, 0.00, 0.00, -9385.25, -27708.94, 3965.94, 0.00, 0.00, 0.00, 0.000, 0.000, 0.000, 19:38:11.496, 1565912291496
92, 0.00, 0.00, -9500.70, -27724.30, 3951.65, 0.00, 0.00, 0.00, 0.000, 0.000, 0.000, 19:38:11.502, 1565912291502
93, 0.00, 0.00, -9547.61, -27726.11, 3945.84, 0.00, 0.00, 0.00, 0.000, 0.000, 0.000, 19:38:11.510, 1565912291510
94, 0.00, 0.00, -9405.66, -27704.67, 3964.62, 0.00, 0.00, 0.00, 0.000, 0.000, 0.000, 19:38:11.511, 1565912291511
95, 0.00, 0.00, -9372.33, -27700.70, 3973.47, 0.00, 0.00, 0.00, 0.000, 0.000, 0.000, 19:38:11.519, 1565912291519
96, 0.00, 0.00, -9468.71, -27708.16, 3971.35, 0.00, 0.00, 0.00, 0.010, 0.020, 0.964, 19:38:11.519, 1565912291519
97, 0.00, 0.00, -9549.38, -27712.68, 3965.51, 0.00, 0.00, 0.00, 0.000, 0.000, 0.000, 19:38:11.525, 1565912291525
98, 0.00, 0.00, -9428.17, -27698.24, 3975.21, 0.00, 0.00, 0.00, 0.000, 0.000, 0.000, 19:38:11.526, 1565912291526
99, 0.00, 0.00, -9370.99, -27693.74, 3983.17, 0.00, 0.00, 0.00, 0.000, 0.000, 0.000, 19:38:11.533, 1565912291533
100, 0.00, 0.00, -9445.38, -27702.55, 3978.03, 0.00, 0.00, 0.00, 0.000, 0.000, 0.000, 19:38:11.533, 1565912291533
101, 0.00, 0.00, -9550.27, -27714.64, 3967.43, 0.00, 0.00, 0.00, 0.000, 0.000, 0.000, 19:38:11.541, 1565912291541
102, 0.00, 0.00, -9460.69, -27704.45, 3972.60, 0.00, 0.00, 0.00, 0.000, 0.000, 0.000, 19:38:11.541, 1565912291541
103, 0.00, 0.00, -9372.56, -27703.58, 3973.98, 0.00, 0.00, 0.00, 0.000, 0.000, 0.000, 19:38:11.548, 1565912291548
104, 0.00, 0.00, -9431.07, -27710.17, 3970.92, 0.00, 0.00, 0.00, 0.000, 0.000, 0.000, 19:38:11.548, 1565912291548
105, 0.00, 0.00, -9551.77, -27722.40, 3958.34, 0.00, 0.00, 0.00, 0.000, 0.000, 0.000, 19:38:11.556, 1565912291556
106, 0.00, 0.00, -9488.90, -27713.66, 3961.58, 0.00, 0.00, 0.00, 0.006, 0.018, 0.970, 19:38:11.556, 1565912291556
107, 0.00, 0.00, -9374.75, -27702.15, 3972.46, 0.00, 0.00, 0.00, 0.000, 0.000, 0.000, 19:38:11.563, 1565912291563
108, 0.00, 0.00, -9415.25, -27713.61, 3962.81, 0.00, 0.00, 0.00, 0.000, 0.000, 0.000, 19:38:11.563, 1565912291563
109, 0.00, 0.00, -9539.28, -27727.47, 3947.76, 0.00, 0.00, 0.00, 0.000, 0.000, 0.000, 19:38:11.572, 1565912291572
110, 0.00, 0.00, -9516.66, -27719.07, 3950.94, 0.00, 0.00, 0.00, 0.000, 0.000, 0.000, 19:38:11.578, 1565912291578
111, 0.00, 0.00, -9378.48, -27701.77, 3965.29, 0.00, 0.00, 0.00, 0.000, 0.000, 0.000, 19:38:11.578, 1565912291578
112, 0.00, 0.00, -9400.79, -27711.74, 3956.80, 0.00, 0.00, 0.00, 0.000, 0.000, 0.000, 19:38:11.585, 1565912291585
113, 0.00, 0.00, -9528.86, -27729.44, 3941.80, 0.00, 0.00, 0.00, 0.000, 0.000, 0.000, 19:38:11.586, 1565912291586
114, 0.00, 0.00, -9549.98, -27729.89, 3941.06, 0.00, 0.00, 0.00, 0.000, 0.000, 0.000, 19:38:11.594, 1565912291594
115, 0.00, 0.00, -9410.58, -27716.88, 3953.64, 0.00, 0.00, 0.00, 0.000, 0.000, 0.000, 19:38:11.594, 1565912291594
116, 0.00, 0.00, -9399.33, -27717.12, 3957.24, 0.00, 0.00, 0.00, 0.002, 0.022, 0.972, 19:38:11.601, 1565912291601
117, 0.00, 0.00, -9502.02, -27723.36, 3953.38, 0.00, 0.00, 0.00, 0.000, 0.000, 0.000, 19:38:11.601, 1565912291601
118, 0.00, 0.00, -9561.12, -27729.35, 3943.99, 0.00, 0.00, 0.00, 0.000, 0.000, 0.000, 19:38:11.608, 1565912291608
119, 0.00, 0.00, -9430.83, -27721.01, 3945.62, 0.00, 0.00, 0.00, 0.000, 0.000, 0.000, 19:38:11.608, 1565912291608
120, 0.00, 0.00, -9388.94, -27713.17, 3956.50, 0.00, 0.00, 0.00, 0.000, 0.000, 0.000, 19:38:11.616, 1565912291616
121, 0.00, 0.00, -9480.34, -27720.72, 3954.16, 0.00, 0.00, 0.00, 0.000, 0.000, 0.000, 19:38:11.616, 1565912291616
122, 0.00, 0.00, -9571.71, -27727.25, 3946.56, 0.00, 0.00, 0.00, 0.000, 0.000, 0.000, 19:38:11.624, 1565912291624
123, 0.00, 0.00, -9454.14, -27716.36, 3951.94, 0.00, 0.00, 0.00, 0.000, 0.000, 0.000, 19:38:11.624, 1565912291624
124, 0.00, 0.00, -9386.03, -27714.64, 3955.61, 0.00, 0.00, 0.00, 0.000, 0.000, 0.000, 19:38:11.630, 1565912291630
125, 0.00, 0.00, -9456.24, -27720.97, 3952.55, 0.00, 0.00, 0.00, 0.000, 0.000, 0.000, 19:38:11.638, 1565912291638
126, 0.00, 0.00, -9568.33, -27731.61, 3942.02, 0.00, 0.00, 0.00, 0.004, 0.016, 0.970, 19:38:11.638, 1565912291638
127, 0.00, 0.00, -9481.10, -27720.41, 3947.39, 0.00, 0.00, 0.00, 0.000, 0.000, 0.000, 19:38:11.646, 1565912291646
128, 0.00, 0.00, -9379.84, -27711.54, 3958.78, 0.00, 0.00, 0.00, 0.000, 0.000, 0.000, 19:38:11.646, 1565912291646
129, 0.00, 0.00, -9430.13, -27714.40, 3961.58, 0.00, 0.00, 0.00, 0.000, 0.000, 0.000, 19:38:11.654, 1565912291654
130, 0.00, 0.00, -9552.40, -27729.33, 3945.91, 0.00, 0.00, 0.00, 0.000, 0.000, 0.000, 19:38:11.654, 1565912291654
131, 0.00, 0.00, -9508.36, -27727.05, 3941.31, 0.00, 0.00, 0.00, 0.000, 0.000, 0.000, 19:38:11.660, 1565912291660
132, 0.00, 0.00, -9386.03, -27707.67, 3961.67, 0.00, 0.00, 0.00, 0.000, 0.000, 0.000, 19:38:11.660, 1565912291660
133, 0.00, 0.00, -9417.17, -27713.14, 3962.18, 0.00, 0.00, 0.00, 0.000, 0.000, 0.000, 19:38:11.669, 1565912291669
134, 0.00, 0.00, -9546.07, -27731.56, 3945.84, 0.00, 0.00, 0.00, 0.000, 0.000, 0.000, 19:38:11.669, 1565912291669
135, 0.00, 0.00, -9537.80, -27728.03, 3945.84, 0.00, 0.00, 0.00, 0.008, 0.014, 0.976, 19:38:11.676, 1565912291676
136, 0.00, 0.00, -9397.14, -27708.36, 3963.86, 0.00, 0.00, 0.00, 0.000, 0.000, 0.000, 19:38:11.677, 1565912291677
137, 0.00, 0.00, -9404.12, -27714.31, 3963.52, 0.00, 0.00, 0.00, 0.000, 0.000, 0.000, 19:38:11.683, 1565912291683
138, 0.00, 0.00, -9516.21, -27724.03, 3957.40, 0.00, 0.00, 0.00, 0.000, 0.000, 0.000, 19:38:11.684, 1565912291684
139, 0.00, 0.00, -9555.01, -27729.77, 3948.52, 0.00, 0.00, 0.00, 0.000, 0.000, 0.000, 19:38:11.690, 1565912291690
140, 0.00, 0.00, -9418.22, -27715.47, 3960.21, 0.00, 0.00, 0.00, 0.000, 0.000, 0.000, 19:38:11.698, 1565912291698
141, 0.00, 0.00, -9394.57, -27710.15, 3968.24, 0.00, 0.00, 0.00, 0.000, 0.000, 0.000, 19:38:11.698, 1565912291698
142, 0.00, 0.00, -9495.16, -27724.01, 3955.34, 0.00, 0.00, 0.00, 0.000, 0.000, 0.000, 19:38:11.706, 1565912291706
143, 0.00, 0.00, -9564.78, -27732.84, 3945.42, 0.00, 0.00, 0.00, 0.000, 0.000, 0.000, 19:38:11.707, 1565912291707
144, 0.00, 0.00, -9444.13, -27722.91, 3952.08, 0.00, 0.00, 0.00, 0.000, 0.000, 0.000, 19:38:11.713, 1565912291713
145, 0.00, 0.00, -9391.51, -27715.18, 3962.43, 0.00, 0.00, 0.00, 0.008, 0.016, 0.970, 19:38:11.714, 1565912291714
146, 0.00, 0.00, -9470.34, -27715.36, 3965.20, 0.00, 0.00, 0.00, 0.000, 0.000, 0.000, 19:38:11.720, 1565912291720
147, 0.00, 0.00, -9564.89, -27725.53, 3953.89, 0.00, 0.00, 0.00, 0.000, 0.000, 0.000, 19:38:11.721, 1565912291721
148, 0.00, 0.00, -9459.50, -27716.34, 3959.68, 0.00, 0.00, 0.00, 0.000, 0.000, 0.000, 19:38:11.728, 1565912291728
149, 0.00, 0.00, -9384.38, -27712.99, 3963.55, 0.00, 0.00, 0.00, 0.000, 0.000, 0.000, 19:38:11.728, 1565912291728
150, 0.00, 0.00, -9444.37, -27714.80, 3964.39, 0.00, 0.00, 0.00, 0.000, 0.000, 0.000, 19:38:11.736, 1565912291736
151, 0.00, 0.00, -9561.34, -27727.05, 3952.88, 0.00, 0.00, 0.00, 0.000, 0.000, 0.000, 19:38:11.736, 1565912291736
152, 0.00, 0.00, -9492.14, -27724.32, 3951.30, 0.00, 0.00, 0.00, 0.000, 0.000, 0.000, 19:38:11.744, 1565912291744
153, 0.00, 0.00, -9393.28, -27719.89, 3959.19, 0.00, 0.00, 0.00, 0.000, 0.000, 0.000, 19:38:11.744, 1565912291744
154, 0.00, 0.00, -9437.71, -27725.04, 3960.91, 0.00, 0.00, 0.00, 0.000, 0.000, 0.000, 19:38:11.751, 1565912291751
155, 0.00, 0.00, -9564.60, -27739.36, 3947.68, 0.00, 0.00, 0.00, 0.010, 0.010, 0.968, 19:38:11.758, 1565912291758
156, 0.00, 0.00, -9527.65, -27733.42, 3947.30, 0.00, 0.00, 0.00, 0.000, 0.000, 0.000, 19:38:11.758, 1565912291758
157, 0.00, 0.00, -9402.28, -27716.74, 3961.73, 0.00, 0.00, 0.00, 0.000, 0.000, 0.000, 19:38:11.766, 1565912291766
158, 0.00, 0.00, -9424.70, -27718.82, 3963.93, 0.00, 0.00, 0.00, 0.000, 0.000, 0.000, 19:38:11.766, 1565912291766
159, 0.00, 0.00, -9551.88, -27738.02, 3944.93, 0.00, 0.00, 0.00, 0.000, 0.000, 0.000, 19:38:11.773, 1565912291773
160, 0.00, 0.00, -9555.48, -27737.91, 3939.18, 0.00, 0.00, 0.00, 0.000, 0.000, 0.000, 19:38:11.774, 1565912291774
161, 0.00, 0.00, -9406.60, -27714.75, 3956.68, 0.00, 0.00, 0.00, 0.000, 0.000, 0.000, 19:38:11.780, 1565912291780
162, 0.00, 0.00, -9405.26, -27715.29, 3960.42, 0.00, 0.00, 0.00, 0.000, 0.000, 0.000, 19:38:11.781, 1565912291781
163, 0.00, 0.00, -9521.55, -27732.10, 3946.96, 0.00, 0.00, 0.00, 0.000, 0.000, 0.000, 19:38:11.788, 1565912291788
164, 0.00, 0.00, -9565.18, -27736.30, 3940.25, 0.00, 0.00, 0.00, 0.000, 0.000, 0.000, 19:38:11.788, 1565912291788
165, 0.00, 0.00, -9428.17, -27722.91, 3949.62, 0.00, 0.00, 0.00, 0.008, 0.006, 0.974, 19:38:11.796, 1565912291796
166, 0.00, 0.00, -9393.25, -27717.93, 3958.96, 0.00, 0.00, 0.00, 0.000, 0.000, 0.000, 19:38:11.796, 1565912291796
167, 0.00, 0.00, -9485.14, -27722.09, 3957.69, 0.00, 0.00, 0.00, 0.000, 0.000, 0.000, 19:38:11.803, 1565912291803
168, 0.00, 0.00, -9569.70, -27735.90, 3941.04, 0.00, 0.00, 0.00, 0.000, 0.000, 0.000, 19:38:11.803, 1565912291803
169, 0.00, 0.00, -9447.61, -27720.63, 3952.32, 0.00, 0.00, 0.00, 0.000, 0.000, 0.000, 19:38:11.810, 1565912291810
170, 0.00, 0.00, -9385.99, -27711.22, 3967.17, 0.00, 0.00, 0.00, 0.000, 0.000, 0.000, 19:38:11.810, 1565912291810
171, 0.00, 0.00, -9472.69, -27725.28, 3956.21, 0.00, 0.00, 0.00, 0.000, 0.000, 0.000, 19:38:11.818, 1565912291818
172, 0.00, 0.00, -9575.40, -27732.93, 3947.36, 0.00, 0.00, 0.00, 0.000, 0.000, 0.000, 19:38:11.826, 1565912291826
173, 0.00, 0.00, -9479.06, -27723.74, 3949.69, 0.00, 0.00, 0.00, 0.000, 0.000, 0.000, 19:38:11.826, 1565912291826
174, 0.00, 0.00, -9391.89, -27715.85, 3957.64, 0.00, 0.00, 0.00, 0.000, 0.000, 0.000, 19:38:11.833, 1565912291833
175, 0.00, 0.00, -9452.84, -27721.46, 3956.01, 0.00, 0.00, 0.00, 0.012, 0.012, 0.976, 19:38:11.833, 1565912291833
176, 0.00, 0.00, -9567.71, -27729.46, 3946.74, 0.00, 0.00, 0.00, 0.000, 0.000, 0.000, 19:38:11.841, 1565912291841
177, 0.00, 0.00, -9500.41, -27722.11, 3949.11, 0.00, 0.00, 0.00, 0.000, 0.000, 0.000, 19:38:11.841, 1565912291841
178, 0.00, 0.00, -9388.83, -27711.33, 3961.87, 0.00, 0.00, 0.00, 0.000, 0.000, 0.000, 19:38:11.848, 1565912291848
179, 0.00, 0.00, -9427.65, -27715.49, 3961.60, 0.00, 0.00, 0.00, 0.000, 0.000, 0.000, 19:38:11.848, 1565912291848
180, 0.00, 0.00, -9544.80, -27723.47, 3953.98, 0.00, 0.00, 0.00, 0.000, 0.000, 0.000, 19:38:11.856, 1565912291856
181, 0.00, 0.00, -9523.41, -27722.29, 3949.84, 0.00, 0.00, 0.00, 0.000, 0.000, 0.000, 19:38:11.856, 1565912291856
182, 0.00, 0.00, -9398.06, -27714.02, 3957.33, 0.00, 0.00, 0.00, 0.000, 0.000, 0.000, 19:38:11.863, 1565912291863
183, 0.00, 0.00, -9413.53, -27717.50, 3957.15, 0.00, 0.00, 0.00, 0.000, 0.000, 0.000, 19:38:11.863, 1565912291863
184, 0.00, 0.00, -9531.79, -27729.53, 3948.10, 0.00, 0.00, 0.00, 0.000, 0.000, 0.000, 19:38:11.872, 1565912291872
185, 0.00, 0.00, -9553.40, -27735.92, 3939.96, 0.00, 0.00, 0.00, 0.012, 0.012, 0.968, 19:38:11.873, 1565912291873
186, 0.00, 0.00, -9420.17, -27725.62, 3949.40, 0.00, 0.00, 0.00, 0.000, 0.000, 0.000, 19:38:11.879, 1565912291879
187, 0.00, 0.00, -9406.64, -27719.69, 3959.79, 0.00, 0.00, 0.00, 0.000, 0.000, 0.000, 19:38:11.886, 1565912291886
188, 0.00, 0.00, -9512.52, -27729.89, 3954.02, 0.00, 0.00, 0.00, 0.000, 0.000, 0.000, 19:38:11.886, 1565912291886
189, 0.00, 0.00, -9565.05, -27733.80, 3947.07, 0.00, 0.00, 0.00, 0.000, 0.000, 0.000, 19:38:11.893, 1565912291893
190, 0.00, 0.00, -9431.41, -27717.26, 3957.55, 0.00, 0.00, 0.00, 0.000, 0.000, 0.000, 19:38:11.893, 1565912291893
191, 0.00, 0.00, -9393.54, -27713.84, 3964.37, 0.00, 0.00, 0.00, 0.000, 0.000, 0.000, 19:38:11.900, 1565912291900
192, 0.00, 0.00, -9490.53, -27727.32, 3956.44, 0.00, 0.00, 0.00, 0.000, 0.000, 0.000, 19:38:11.901, 1565912291901
193, 0.00, 0.00, -9575.08, -27736.37, 3943.67, 0.00, 0.00, 0.00, 0.000, 0.000, 0.000, 19:38:11.909, 1565912291909
194, 0.00, 0.00, -9458.74, -27725.93, 3949.02, 0.00, 0.00, 0.00, 0.006, 0.012, 0.964, 19:38:11.909, 1565912291909
195, 0.00, 0.00, -9395.38, -27721.35, 3957.35, 0.00, 0.00, 0.00, 0.000, 0.000, 0.000, 19:38:11.916, 1565912291916
196, 0.00, 0.00, -9473.41, -27728.81, 3954.00, 0.00, 0.00, 0.00, 0.000, 0.000, 0.000, 19:38:11.916, 1565912291916
197, 0.00, 0.00, -9584.83, -27741.75, 3939.38, 0.00, 0.00, 0.00, 0.000, 0.000, 0.000, 19:38:11.923, 1565912291923
198, 0.00, 0.00, -9495.07, -27731.43, 3945.57, 0.00, 0.00, 0.00, 0.000, 0.000, 0.000, 19:38:11.923, 1565912291923
199, 0.00, 0.00, -9396.74, -27720.99, 3958.20, 0.00, 0.00, 0.00, 0.000, 0.000, 0.000, 19:38:11.931, 1565912291931
200, 0.00, 0.00, -9450.29, -27726.87, 3957.49, 0.00, 0.00, 0.00, 0.000, 0.000, 0.000, 19:38:11.931, 1565912291931
201, 0.00, 0.00, -9575.35, -27739.88, 3944.88, 0.00, 0.00, 0.00, 0.000, 0.000, 0.000, 19:38:11.938, 1565912291938
202, 0.00, 0.00, -9519.36, -27733.53, 3946.13, 0.00, 0.00, 0.00, 0.000, 0.000, 0.000, 19:38:11.946, 1565912291946
203, 0.00, 0.00, -9404.34, -27724.86, 3953.31, 0.00, 0.00, 0.00, 0.000, 0.000, 0.000, 19:38:11.946, 1565912291946
204, 0.00, 0.00, -9440.28, -27730.71, 3953.31, 0.00, 0.00, 0.00, 0.004, 0.018, 0.962, 19:38:11.953, 1565912291953
205, 0.00, 0.00, -9559.39, -27741.02, 3946.00, 0.00, 0.00, 0.00, 0.000, 0.000, 0.000, 19:38:11.953, 1565912291953
206, 0.00, 0.00, -9544.73, -27737.15, 3944.43, 0.00, 0.00, 0.00, 0.000, 0.000, 0.000, 19:38:11.961, 1565912291961
207, 0.00, 0.00, -9409.44, -27720.72, 3958.56, 0.00, 0.00, 0.00, 0.000, 0.000, 0.000, 19:38:11.961, 1565912291961
208, 0.00, 0.00, -9420.90, -27723.52, 3958.67, 0.00, 0.00, 0.00, 0.000, 0.000, 0.000, 19:38:11.968, 1565912291968
209, 0.00, 0.00, -9530.29, -27732.86, 3951.05, 0.00, 0.00, 0.00, 0.000, 0.000, 0.000, 19:38:11.968, 1565912291968
210, 0.00, 0.00, -9557.16, -27731.74, 3947.25, 0.00, 0.00, 0.00, 0.000, 0.000, 0.000, 19:38:11.976, 1565912291976
211, 0.00, 0.00, -9427.05, -27722.09, 3953.06, 0.00, 0.00, 0.00, 0.000, 0.000, 0.000, 19:38:11.976, 1565912291976
212, 0.00, 0.00, -9409.17, -27720.43, 3958.18, 0.00, 0.00, 0.00, 0.000, 0.000, 0.000, 19:38:11.984, 1565912291984
213, 0.00, 0.00, -9510.60, -27732.12, 3950.49, 0.00, 0.00, 0.00, 0.000, 0.000, 0.000, 19:38:11.984, 1565912291984
214, 0.00, 0.00, -9571.51, -27735.85, 3944.99, 0.00, 0.00, 0.00, 0.008, 0.020, 0.960, 19:38:11.992, 1565912291992
215, 0.00, 0.00, -9445.31, -27723.85, 3953.53, 0.00, 0.00, 0.00, 0.000, 0.000, 0.000, 19:38:11.992, 1565912291992
216, 0.00, 0.00, -9401.43, -27724.23, 3956.33, 0.00, 0.00, 0.00, 0.000, 0.000, 0.000, 19:38:11.998, 1565912291998
217, 0.00, 0.00, -9489.03, -27734.89, 3950.09, 0.00, 0.00, 0.00, 0.000, 0.000, 0.000, 19:38:12.005, 1565912292005
218, 0.00, 0.00, -9584.34, -27739.45, 3945.26, 0.00, 0.00, 0.00, 0.000, 0.000, 0.000, 19:38:12.005, 1565912292005
219, 0.00, 0.00, -9477.90, -27723.52, 3955.16, 0.00, 0.00, 0.00, 0.000, 0.000, 0.000, 19:38:12.013, 1565912292013
220, 0.00, 0.00, -9395.20, -27716.90, 3961.91, 0.00, 0.00, 0.00, 0.000, 0.000, 0.000, 19:38:12.013, 1565912292013
221, 0.00, 0.00, -9458.16, -27722.24, 3960.13, 0.00, 0.00, 0.00, 0.000, 0.000, 0.000, 19:38:12.021, 1565912292021
222, 0.00, 0.00, -9574.30, -27735.09, 3947.07, 0.00, 0.00, 0.00, 0.000, 0.000, 0.000, 19:38:12.021, 1565912292021
223, 0.00, 0.00, -9497.75, -27725.66, 3950.16, 0.00, 0.00, 0.00, 0.000, 0.000, 0.000, 19:38:12.028, 1565912292028
224, 0.00, 0.00, -9388.54, -27713.26, 3962.56, 0.00, 0.00, 0.00, 0.002, 0.018, 0.962, 19:38:12.028, 1565912292028
225, 0.00, 0.00, -9436.95, -27718.20, 3962.92, 0.00, 0.00, 0.00, 0.000, 0.000, 0.000, 19:38:12.036, 1565912292036
226, 0.00, 0.00, -9563.13, -27733.42, 3950.38, 0.00, 0.00, 0.00, 0.000, 0.000, 0.000, 19:38:12.036, 1565912292036
227, 0.00, 0.00, -9518.94, -27729.17, 3948.17, 0.00, 0.00, 0.00, 0.000, 0.000, 0.000, 19:38:12.044, 1565912292044
228, 0.00, 0.00, -9392.00, -27715.54, 3959.25, 0.00, 0.00, 0.00, 0.000, 0.000, 0.000, 19:38:12.044, 1565912292044
229, 0.00, 0.00, -9425.51, -27728.37, 3951.65, 0.00, 0.00, 0.00, 0.000, 0.000, 0.000, 19:38:12.051, 1565912292051
230, 0.00, 0.00, -9548.98, -27740.23, 3943.38, 0.00, 0.00, 0.00, 0.000, 0.000, 0.000, 19:38:12.051, 1565912292051
231, 0.00, 0.00, -9548.20, -27735.25, 3945.66, 0.00, 0.00, 0.00, 0.000, 0.000, 0.000, 19:38:12.058, 1565912292058
232, 0.00, 0.00, -9406.69, -27722.40, 3955.10, 0.00, 0.00, 0.00, 0.000, 0.000, 0.000, 19:38:12.058, 1565912292058
233, 0.00, 0.00, -9410.26, -27718.93, 3962.05, 0.00, 0.00, 0.00, 0.000, 0.000, 0.000, 19:38:12.066, 1565912292066
234, 0.00, 0.00, -9522.42, -27728.05, 3953.44, 0.00, 0.00, 0.00, 0.002, 0.018, 0.962, 19:38:12.073, 1565912292073
235, 0.00, 0.00, -9562.05, -27731.14, 3943.92, 0.00, 0.00, 0.00, 0.000, 0.000, 0.000, 19:38:12.074, 1565912292074
236, 0.00, 0.00, -9426.16, -27714.91, 3956.24, 0.00, 0.00, 0.00, 0.000, 0.000, 0.000, 19:38:12.081, 1565912292081
237, 0.00, 0.00, -9396.52, -27710.04, 3962.99, 0.00, 0.00, 0.00, 0.000, 0.000, 0.000, 19:38:12.081, 1565912292081
238, 0.00, 0.00, -9490.59, -27716.81, 3959.86, 0.00, 0.00, 0.00, 0.000, 0.000, 0.000, 19:38:12.088, 1565912292088
239, 0.00, 0.00, -9565.47, -27726.09, 3950.47, 0.00, 0.00, 0.00, 0.000, 0.000, 0.000, 19:38:12.088, 1565912292088
240, 0.00, 0.00, -9440.08, -27714.73, 3959.41, 0.00, 0.00, 0.00, 0.000, 0.000, 0.000, 19:38:12.096, 1565912292096
241, 0.00, 0.00, -9385.03, -27706.82, 3971.61, 0.00, 0.00, 0.00, 0.000, 0.000, 0.000, 19:38:12.096, 1565912292096
242, 0.00, 0.00, -9467.35, -27714.93, 3967.37, 0.00, 0.00, 0.00, 0.000, 0.000, 0.000, 19:38:12.104, 1565912292104
243, 0.00, 0.00, -9568.80, -27724.75, 3957.18, 0.00, 0.00, 0.00, 0.000, 0.000, 0.000, 19:38:12.105, 1565912292105
244, 0.00, 0.00, -9463.19, -27710.28, 3965.33, 0.00, 0.00, 0.00, 0.006, 0.024, 0.964, 19:38:12.111, 1565912292111
245, 0.00, 0.00, -9379.51, -27701.68, 3974.83, 0.00, 0.00, 0.00, 0.000, 0.000, 0.000, 19:38:12.111, 1565912292111
246, 0.00, 0.00, -9441.29, -27710.55, 3971.97, 0.00, 0.00, 0.00, 0.000, 0.000, 0.000, 19:38:12.119, 1565912292119
247, 0.00, 0.00, -9555.84, -27718.15, 3963.70, 0.00, 0.00, 0.00, 0.000, 0.000, 0.000, 19:38:12.119, 1565912292119
248, 0.00, 0.00, -9489.48, -27713.48, 3961.38, 0.00, 0.00, 0.00, 0.000, 0.000, 0.000, 19:38:12.126, 1565912292126
249, 0.00, 0.00, -9379.60, -27700.72, 3973.67, 0.00, 0.00, 0.00, 0.000, 0.000, 0.000, 19:38:12.133, 1565912292133
250, 0.00, 0.00, -9417.93, -27699.71, 3978.52, 0.00, 0.00, 0.00, 0.000, 0.000, 0.000, 19:38:12.133, 1565912292133
251, 0.00, 0.00, -9550.05, -27723.40, 3955.39, 0.00, 0.00, 0.00, 0.000, 0.000, 0.000, 19:38:12.140, 1565912292140
252, 0.00, 0.00, -9523.63, -27720.72, 3954.31, 0.00, 0.00, 0.00, 0.000, 0.000, 0.000, 19:38:12.140, 1565912292140
253, 0.00, 0.00, -9389.07, -27700.29, 3973.36, 0.00, 0.00, 0.00, 0.000, 0.000, 0.000, 19:38:12.148, 1565912292148
254, 0.00, 0.00, -9402.06, -27700.16, 3977.00, 0.00, 0.00, 0.00, 0.006, 0.022, 0.968, 19:38:12.148, 1565912292148
255, 0.00, 0.00, -9524.01, -27716.23, 3961.15, 0.00, 0.00, 0.00, 0.000, 0.000, 0.000, 19:38:12.156, 1565912292156
0, 0.00, 0.00, -9542.88, -27718.42, 3955.97, 0.00, 0.00, 0.00, 0.000, 0.000, 0.000, 19:38:12.157, 1565912292157
1, 0.00, 0.00, -9403.89, -27702.68, 3969.20, 0.00, 0.00, 0.00, 0.000, 0.000, 0.000, 19:38:12.163, 1565912292163
2, 0.00, 0.00, -9391.80, -27700.90, 3974.16, 0.00, 0.00, 0.00, 0.000, 0.000, 0.000, 19:38:12.163, 1565912292163
3, 0.00, 0.00, -9496.70, -27712.77, 3966.23, 0.00, 0.00, 0.00, 0.000, 0.000, 0.000, 19:38:12.171, 1565912292171
4, 0.00, 0.00, -9548.11, -27718.15, 3959.90, 0.00, 0.00, 0.00, 0.000, 0.000, 0.000, 19:38:12.171, 1565912292171
5, 0.00, 0.00, -9414.93, -27703.85, 3970.72, 0.00, 0.00, 0.00, 0.000, 0.000, 0.000, 19:38:12.179, 1565912292179
6, 0.00, 0.00, -9382.61, -27699.82, 3978.81, 0.00, 0.00, 0.00, 0.000, 0.000, 0.000, 19:38:12.179, 1565912292179
7, 0.00, 0.00, -9476.74, -27709.35, 3975.21, 0.00, 0.00, 0.00, 0.008, 0.020, 0.962, 19:38:12.186, 1565912292186
8, 0.00, 0.00, -9564.33, -27721.10, 3963.72, 0.00, 0.00, 0.00, 0.000, 0.000, 0.000, 19:38:12.193, 1565912292193
9, 0.00, 0.00, -9447.21, -27709.88, 3969.63, 0.00, 0.00, 0.00, 0.000, 0.000, 0.000, 19:38:12.193, 1565912292193
10, 0.00, 0.00, -9384.96, -27705.90, 3976.00, 0.00, 0.00, 0.00, 0.000, 0.000, 0.000, 19:38:12.200, 1565912292200
11, 0.00, 0.00, -9457.16, -27713.32, 3972.53, 0.00, 0.00, 0.00, 0.000, 0.000, 0.000, 19:38:12.201, 1565912292201
12, 0.00, 0.00, -9562.54, -27727.25, 3955.77, 0.00, 0.00, 0.00, 0.000, 0.000, 0.000, 19:38:12.209, 1565912292209
13, 0.00, 0.00, -9469.79, -27717.44, 3957.96, 0.00, 0.00, 0.00, 0.000, 0.000, 0.000, 19:38:12.209, 1565912292209
14, 0.00, 0.00, -9380.78, -27708.00, 3968.42, 0.00, 0.00, 0.00, 0.000, 0.000, 0.000, 19:38:12.216, 1565912292216
15, 0.00, 0.00, -9438.52, -27712.12, 3969.20, 0.00, 0.00, 0.00, 0.000, 0.000, 0.000, 19:38:12.216, 1565912292216
16, 0.00, 0.00, -9557.65, -27727.83, 3955.79, 0.00, 0.00, 0.00, 0.000, 0.000, 0.000, 19:38:12.223, 1565912292223
17, 0.00, 0.00, -9499.20, -27716.14, 3965.11, 0.00, 0.00, 0.00, 0.002, 0.022, 0.968, 19:38:12.223, 1565912292223
18, 0.00, 0.00, -9381.56, -27703.51, 3978.79, 0.00, 0.00, 0.00, 0.000, 0.000, 0.000, 19:38:12.231, 1565912292231
19, 0.00, 0.00, -9420.14, -27711.07, 3974.86, 0.00, 0.00, 0.00, 0.000, 0.000, 0.000, 19:38:12.231, 1565912292231
20, 0.00, 0.00, -9545.33, -27725.57, 3960.59, 0.00, 0.00, 0.00, 0.000, 0.000, 0.000, 19:38:12.239, 1565912292239
21, 0.00, 0.00, -9526.98, -27724.99, 3956.77, 0.00, 0.00, 0.00, 0.000, 0.000, 0.000, 19:38:12.240, 1565912292240
22, 0.00, 0.00, -9391.62, -27710.48, 3968.69, 0.00, 0.00, 0.00, 0.000, 0.000, 0.000, 19:38:12.246, 1565912292246
23, 0.00, 0.00, -9400.67, -27711.63, 3970.47, 0.00, 0.00, 0.00, 0.000, 0.000, 0.000, 19:38:12.253, 1565912292253
24, 0.00, 0.00, -9519.72, -27730.31, 3953.78, 0.00, 0.00, 0.00, 0.000, 0.000, 0.000, 19:38:12.253, 1565912292253
25, 0.00, 0.00, -9550.72, -27736.75, 3943.47, 0.00, 0.00, 0.00, 0.000, 0.000, 0.000, 19:38:12.261, 1565912292261
26, 0.00, 0.00, -9415.05, -27721.95, 3955.95, 0.00, 0.00, 0.00, 0.000, 0.000, 0.000, 19:38:12.261, 1565912292261
27, 0.00, 0.00, -9402.53, -27720.79, 3959.57, 0.00, 0.00, 0.00, 0.004, 0.020, 0.970, 19:38:12.269, 1565912292269
28, 0.00, 0.00, -9512.83, -27734.69, 3948.26, 0.00, 0.00, 0.00, 0.000, 0.000, 0.000, 19:38:12.269, 1565912292269
29, 0.00, 0.00, -9578.15, -27745.24, 3935.40, 0.00, 0.00, 0.00, 0.000, 0.000, 0.000, 19:38:12.276, 1565912292276
30, 0.00, 0.00, -9445.22, -27730.71, 3945.62, 0.00, 0.00, 0.00, 0.000, 0.000, 0.000, 19:38:12.276, 1565912292276
31, 0.00, 0.00, -9402.35, -27725.46, 3949.20, 0.00, 0.00, 0.00, 0.000, 0.000, 0.000, 19:38:12.284, 1565912292284
32, 0.00, 0.00, -9497.17, -27742.02, 3935.99, 0.00, 0.00, 0.00, 0.000, 0.000, 0.000, 19:38:12.284, 1565912292284
33, 0.00, 0.00, -9588.38, -27751.70, 3926.73, 0.00, 0.00, 0.00, 0.000, 0.000, 0.000, 19:38:12.292, 1565912292292
34, 0.00, 0.00, -9472.87, -27737.35, 3935.78, 0.00, 0.00, 0.00, 0.000, 0.000, 0.000, 19:38:12.292, 1565912292292
35, 0.00, 0.00, -9397.10, -27726.71, 3947.41, 0.00, 0.00, 0.00, 0.000, 0.000, 0.000, 19:38:12.298, 1565912292298
36, 0.00, 0.00, -9465.16, -27730.47, 3946.11, 0.00, 0.00, 0.00, 0.000, 0.000, 0.000, 19:38:12.298, 1565912292298
37, 0.00, 0.00, -9574.37, -27738.16, 3936.43, 0.00, 0.00, 0.00, 0.002, 0.018, 0.974, 19:38:12.305, 1565912292305
38, 0.00, 0.00, -9494.89, -27731.16, 3941.37, 0.00, 0.00, 0.00, 0.000, 0.000, 0.000, 19:38:12.306, 1565912292306
39, 0.00, 0.00, -9389.92, -27716.07, 3958.47, 0.00, 0.00, 0.00, 0.000, 0.000, 0.000, 19:38:12.314, 1565912292314
40, 0.00, 0.00, -9440.79, -27721.10, 3956.57, 0.00, 0.00, 0.00, 0.000, 0.000, 0.000, 19:38:12.321, 1565912292321
41, 0.00, 0.00, -9562.12, -27736.53, 3941.93, 0.00, 0.00, 0.00, 0.000, 0.000, 0.000, 19:38:12.322, 1565912292322
42, 0.00, 0.00, -9520.46, -27732.90, 3941.08, 0.00, 0.00, 0.00, 0.000, 0.000, 0.000, 19:38:12.328, 1565912292328
43, 0.00, 0.00, -9399.65, -27720.81, 3953.24, 0.00, 0.00, 0.00, 0.000, 0.000, 0.000, 19:38:12.328, 1565912292328
44, 0.00, 0.00, -9425.31, -27722.69, 3956.66, 0.00, 0.00, 0.00, 0.000, 0.000, 0.000, 19:38:12.336, 1565912292336
45, 0.00, 0.00, -9547.73, -27738.60, 3942.91, 0.00, 0.00, 0.00, 0.000, 0.000, 0.000, 19:38:12.336, 1565912292336
46, 0.00, 0.00, -9542.45, -27734.89, 3943.76, 0.00, 0.00, 0.00, 0.000, 0.000, 0.000, 19:38:12.345, 1565912292345
47, 0.00, 0.00, -9408.09, -27721.57, 3956.15, 0.00, 0.00, 0.00, 0.006, 0.014, 0.976, 19:38:12.345, 1565912292345
48, 0.00, 0.00, -9408.56, -27720.83, 3958.56, 0.00, 0.00, 0.00, 0.000, 0.000, 0.000, 19:38:12.351, 1565912292351
49, 0.00, 0.00, -9522.49, -27729.80, 3952.32, 0.00, 0.00, 0.00, 0.000, 0.000, 0.000, 19:38:12.351, 1565912292351
50, 0.00, 0.00, -9556.09, -27730.02, 3948.17, 0.00, 0.00, 0.00, 0.000, 0.000, 0.000, 19:38:12.358, 1565912292358
51, 0.00, 0.00, -9414.26, -27718.38, 3953.89, 0.00, 0.00, 0.00, 0.000, 0.000, 0.000, 19:38:12.359, 1565912292359
52, 0.00, 0.00, -9396.16, -27721.35, 3954.09, 0.00, 0.00, 0.00, 0.000, 0.000, 0.000, 19:38:12.366, 1565912292366
53, 0.00, 0.00, -9496.05, -27729.44, 3950.74, 0.00, 0.00, 0.00, 0.000, 0.000, 0.000, 19:38:12.367, 1565912292367
54, 0.00, 0.00, -9564.56, -27729.39, 3950.25, 0.00, 0.00, 0.00, 0.000, 0.000, 0.000, 19:38:12.374, 1565912292374
55, 0.00, 0.00, -9440.71, -27718.04, 3958.81, 0.00, 0.00, 0.00, 0.000, 0.000, 0.000, 19:38:12.381, 1565912292381
56, 0.00, 0.00, -9392.52, -27718.60, 3961.94, 0.00, 0.00, 0.00, 0.000, 0.000, 0.000, 19:38:12.381, 1565912292381
57, 0.00, 0.00, -9472.76, -27723.54, 3959.23, 0.00, 0.00, 0.00, 0.010, 0.016, 0.974, 19:38:12.388, 1565912292388
58, 0.00, 0.00, -9569.99, -27730.54, 3950.13, 0.00, 0.00, 0.00, 0.000, 0.000, 0.000, 19:38:12.388, 1565912292388
59, 0.00, 0.00, -9468.51, -27720.01, 3956.46, 0.00, 0.00, 0.00, 0.000, 0.000, 0.000, 19:38:12.396, 1565912292396
60, 0.00, 0.00, -9383.55, -27708.56, 3968.80, 0.00, 0.00, 0.00, 0.000, 0.000, 0.000, 19:38:12.396, 1565912292396
61, 0.00, 0.00, -9451.68, -27718.33, 3962.11, 0.00, 0.00, 0.00, 0.000, 0.000, 0.000, 19:38:12.404, 1565912292404
62, 0.00, 0.00, -9566.86, -27727.88, 3953.11, 0.00, 0.00, 0.00, 0.000, 0.000, 0.000, 19:38:12.404, 1565912292404
63, 0.00, 0.00, -9495.07, -27720.16, 3955.36, 0.00, 0.00, 0.00, 0.000, 0.000, 0.000, 19:38:12.411, 1565912292411
64, 0.00, 0.00, -9385.41, -27709.61, 3965.11, 0.00, 0.00, 0.00, 0.000, 0.000, 0.000, 19:38:12.411, 1565912292411
65, 0.00, 0.00, -9422.91, -27713.12, 3966.63, 0.00, 0.00, 0.00, 0.000, 0.000, 0.000, 19:38:12.419, 1565912292419
66, 0.00, 0.00, -9545.07, -27725.35, 3955.45, 0.00, 0.00, 0.00, 0.008, 0.020, 0.978, 19:38:12.419, 1565912292419
67, 0.00, 0.00, -9516.12, -27725.21, 3951.07, 0.00, 0.00, 0.00, 0.000, 0.000, 0.000, 19:38:12.427, 1565912292427
68, 0.00, 0.00, -9391.17, -27711.87, 3965.18, 0.00, 0.00, 0.00, 0.000, 0.000, 0.000, 19:38:12.427, 1565912292427
69, 0.00, 0.00, -9406.75, -27709.84, 3969.58, 0.00, 0.00, 0.00, 0.000, 0.000, 0.000, 19:38:12.434, 1565912292434
70, 0.00, 0.00, -9524.77, -27718.38, 3961.31, 0.00, 0.00, 0.00, 0.000, 0.000, 0.000, 19:38:12.440, 1565912292440
71, 0.00, 0.00, -9536.17, -27720.59, 3956.17, 0.00, 0.00, 0.00, 0.000, 0.000, 0.000, 19:38:12.441, 1565912292441
72, 0.00, 0.00, -9392.83, -27699.44, 3974.97, 0.00, 0.00, 0.00, 0.000, 0.000, 0.000, 19:38:12.449, 1565912292449
73, 0.00, 0.00, -9385.09, -27695.46, 3982.43, 0.00, 0.00, 0.00, 0.000, 0.000, 0.000, 19:38:12.449, 1565912292449
74, 0.00, 0.00, -9500.23, -27711.65, 3968.31, 0.00, 0.00, 0.00, 0.000, 0.000, 0.000, 19:38:12.457, 1565912292457
75, 0.00, 0.00, -9552.73, -27719.52, 3958.90, 0.00, 0.00, 0.00, 0.000, 0.000, 0.000, 19:38:12.457, 1565912292457
76, 0.00, 0.00, -9415.36, -27705.97, 3969.45, 0.00, 0.00, 0.00, 0.008, 0.018, 0.970, 19:38:12.463, 1565912292463
77, 0.00, 0.00, -9385.25, -27705.57, 3971.50, 0.00, 0.00, 0.00, 0.000, 0.000, 0.000, 19:38:12.463, 1565912292463
78, 0.00, 0.00, -9478.79, -27713.86, 3963.57, 0.00, 0.00, 0.00, 0.000, 0.000, 0.000, 19:38:12.471, 1565912292471
79, 0.00, 0.00, -9556.51, -27717.01, 3957.13, 0.00, 0.00, 0.00, 0.000, 0.000, 0.000, 19:38:12.471, 1565912292471
80, 0.00, 0.00, -9437.67, -27703.18, 3968.80, 0.00, 0.00, 0.00, 0.000, 0.000, 0.000, 19:38:12.479, 1565912292479
81, 0.00, 0.00, -9373.11, -27694.75, 3979.42, 0.00, 0.00, 0.00, 0.000, 0.000, 0.000, 19:38:12.479, 1565912292479
82, 0.00, 0.00, -9446.99, -27701.90, 3976.55, 0.00, 0.00, 0.00, 0.000, 0.000, 0.000, 19:38:12.486, 1565912292486
83, 0.00, 0.00, -9553.22, -27712.70, 3965.96, 0.00, 0.00, 0.00, 0.000, 0.000, 0.000, 19:38:12.486, 1565912292486
84, 0.00, 0.00, -9460.35, -27704.63, 3967.97, 0.00, 0.00, 0.00, 0.000, 0.000, 0.000, 19:38:12.493, 1565912292493
85, 0.00, 0.00, -9373.23, -27698.08, 3975.55, 0.00, 0.00, 0.00, 0.000, 0.000, 0.000, 19:38:12.501, 1565912292501
86, 0.00, 0.00, -9432.03, -27703.31, 3972.75, 0.00, 0.00, 0.00, 0.010, 0.016, 0.966, 19:38:12.501, 1565912292501
87, 0.00, 0.00, -9549.89, -27716.77, 3958.99, 0.00, 0.00, 0.00, 0.000, 0.000, 0.000, 19:38:12.509, 1565912292509
88, 0.00, 0.00, -9494.15, -27715.36, 3958.94, 0.00, 0.00, 0.00, 0.000, 0.000, 0.000, 19:38:12.509, 1565912292509
89, 0.00, 0.00, -9378.43, -27702.35, 3975.50, 0.00, 0.00, 0.00, 0.000, 0.000, 0.000, 19:38:12.516, 1565912292516
90, 0.00, 0.00, -9417.57, -27706.48, 3974.72, 0.00, 0.00, 0.00, 0.000, 0.000, 0.000, 19:38:12.516, 1565912292516
91, 0.00, 0.00, -9543.34, -27720.25, 3961.89, 0.00, 0.00, 0.00, 0.000, 0.000, 0.000, 19:38:12.523, 1565912292523
92, 0.00, 0.00, -9526.87, -27721.77, 3956.10, 0.00, 0.00, 0.00, 0.000, 0.000, 0.000, 19:38:12.523, 1565912292523
93, 0.00, 0.00, -9393.92, -27711.09, 3965.56, 0.00, 0.00, 0.00, 0.000, 0.000, 0.000, 19:38:12.531, 1565912292531
94, 0.00, 0.00, -9406.93, -27712.23, 3967.61, 0.00, 0.00, 0.00, 0.000, 0.000, 0.000, 19:38:12.531, 1565912292531
95, 0.00, 0.00, -9528.06, -27726.67, 3955.34, 0.00, 0.00, 0.00, 0.000, 0.000, 0.000, 19:38:12.539, 1565912292539
96, 0.00, 0.00, -9548.35, -27729.97, 3947.32, 0.00, 0.00, 0.00, 0.012, 0.018, 0.964, 19:38:12.539, 1565912292539
97, 0.00, 0.00, -9412.14, -27716.10, 3957.29, 0.00, 0.00, 0.00, 0.000, 0.000, 0.000, 19:38:12.546, 1565912292546
98, 0.00, 0.00, -9397.34, -27712.16, 3963.48, 0.00, 0.00, 0.00, 0.000, 0.000, 0.000, 19:38:12.546, 1565912292546
99, 0.00, 0.00, -9506.96, -27727.09, 3948.52, 0.00, 0.00, 0.00, 0.000, 0.000, 0.000, 19:38:12.553, 1565912292553
100, 0.00, 0.00, -9559.86, -27724.39, 3949.42, 0.00, 0.00, 0.00, 0.000, 0.000, 0.000, 19:38:12.553, 1565912292553
101, 0.00, 0.00, -9423.88, -27703.36, 3967.19, 0.00, 0.00, 0.00, 0.000, 0.000, 0.000, 19:38:12.562, 1565912292562
102, 0.00, 0.00, -9385.74, -27703.29, 3970.07, 0.00, 0.00, 0.00, 0.000, 0.000, 0.000, 19:38:12.569, 1565912292569
103, 0.00, 0.00, -9476.89, -27718.20, 3958.16, 0.00, 0.00, 0.00, 0.000, 0.000, 0.000, 19:38:12.569, 1565912292569
104, 0.00, 0.00, -9565.92, -27726.96, 3949.53, 0.00, 0.00, 0.00, 0.000, 0.000, 0.000, 19:38:12.575, 1565912292575
105, 0.00, 0.00, -9450.23, -27714.17, 3957.78, 0.00, 0.00, 0.00, 0.000, 0.000, 0.000, 19:38:12.576, 1565912292576
106, 0.00, 0.00, -9384.65, -27712.41, 3959.61, 0.00, 0.00, 0.00, 0.008, 0.014, 0.968, 19:38:12.583, 1565912292583
107, 0.00, 0.00, -9455.86, -27722.22, 3953.93, 0.00, 0.00, 0.00, 0.000, 0.000, 0.000, 19:38:12.584, 1565912292584
108, 0.00, 0.00, -9565.45, -27731.65, 3945.19, 0.00, 0.00, 0.00, 0.000, 0.000, 0.000, 19:38:12.591, 1565912292591
109, 0.00, 0.00, -9471.28, -27717.62, 3952.82, 0.00, 0.00, 0.00, 0.000, 0.000, 0.000, 19:38:12.592, 1565912292592
110, 0.00, 0.00, -9374.81, -27704.20, 3968.40, 0.00, 0.00, 0.00, 0.000, 0.000, 0.000, 19:38:12.598, 1565912292598
111, 0.00, 0.00, -9429.06, -27710.84, 3965.65, 0.00, 0.00, 0.00, 0.000, 0.000, 0.000, 19:38:12.598, 1565912292598
112, 0.00, 0.00, -9553.96, -27727.27, 3952.26, 0.00, 0.00, 0.00, 0.000, 0.000, 0.000, 19:38:12.606, 1565912292606
113, 0.00, 0.00, -9502.11, -27721.66, 3954.07, 0.00, 0.00, 0.00, 0.000, 0.000, 0.000, 19:38:12.607, 1565912292607
114, 0.00, 0.00, -9380.38, -27706.19, 3966.90, 0.00, 0.00, 0.00, 0.000, 0.000, 0.000, 19:38:12.614, 1565912292614
115, 0.00, 0.00, -9418.38, -27720.10, 3955.25, 0.00, 0.00, 0.00, 0.000, 0.000, 0.000, 19:38:12.615, 1565912292615
116, 0.00, 0.00, -9543.21, -27734.87, 3941.84, 0.00, 0.00, 0.00, 0.004, 0.018, 0.960, 19:38:12.621, 1565912292621
117, 0.00, 0.00, -9534.07, -27731.29, 3940.75, 0.00, 0.00, 0.00, 0.000, 0.000, 0.000, 19:38:12.628, 1565912292628
118, 0.00, 0.00, -9396.25, -27715.18, 3954.94, 0.00, 0.00, 0.00, 0.000, 0.000, 0.000, 19:38:12.628, 1565912292628
119, 0.00, 0.00, -9402.28, -27718.13, 3957.96, 0.00, 0.00, 0.00, 0.000, 0.000, 0.000, 19:38:12.636, 1565912292636
120, 0.00, 0.00, -9517.89, -27729.39, 3950.38, 0.00, 0.00, 0.00, 0.000, 0.000, 0.000, 19:38:12.636, 1565912292636
121, 0.00, 0.00, -9548.42, -27727.38, 3948.30, 0.00, 0.00, 0.00, 0.000, 0.000, 0.000, 19:38:12.644, 1565912292644
122, 0.00, 0.00, -9406.93, -27708.81, 3963.77, 0.00, 0.00, 0.00, 0.000, 0.000, 0.000, 19:38:12.644, 1565912292644
123, 0.00, 0.00, -9389.34, -27707.20, 3969.89, 0.00, 0.00, 0.00, 0.000, 0.000, 0.000, 19:38:12.651, 1565912292651
124, 0.00, 0.00, -9492.09, -27719.20, 3961.71, 0.00, 0.00, 0.00, 0.000, 0.000, 0.000, 19:38:12.651, 1565912292651
125, 0.00, 0.00, -9561.23, -27726.27, 3950.54, 0.00, 0.00, 0.00, 0.000, 0.000, 0.000, 19:38:12.658, 1565912292658
126, 0.00, 0.00, -9434.16, -27712.79, 3958.52, 0.00, 0.00, 0.00, 0.006, 0.014, 0.962, 19:38:12.659, 1565912292659
127, 0.00, 0.00, -9379.26, -27705.03, 3969.13, 0.00, 0.00, 0.00, 0.000, 0.000, 0.000, 19:38:12.666, 1565912292666
128, 0.00, 0.00, -9467.04, -27715.42, 3963.32, 0.00, 0.00, 0.00, 0.000, 0.000, 0.000, 19:38:12.666, 1565912292666
129, 0.00, 0.00, -9561.12, -27719.16, 3956.86, 0.00, 0.00, 0.00, 0.000, 0.000, 0.000, 19:38:12.674, 1565912292674
130, 0.00, 0.00, -9450.27, -27703.06, 3967.39, 0.00, 0.00, 0.00, 0.000, 0.000, 0.000, 19:38:12.675, 1565912292675
131, 0.00, 0.00, -9375.42, -27698.33, 3975.06, 0.00, 0.00, 0.00, 0.000, 0.000, 0.000, 19:38:12.681, 1565912292681
132, 0.00, 0.00, -9438.72, -27704.45, 3973.04, 0.00, 0.00, 0.00, 0.000, 0.000, 0.000, 19:38:12.688, 1565912292688
133, 0.00, 0.00, -9557.52, -27721.68, 3958.16, 0.00, 0.00, 0.00, 0.000, 0.000, 0.000, 19:38:12.689, 1565912292689
134, 0.00, 0.00, -9481.07, -27714.04, 3962.25, 0.00, 0.00, 0.00, 0.000, 0.000, 0.000, 19:38:12.697, 1565912292697
135, 0.00, 0.00, -9377.03, -27704.96, 3970.94, 0.00, 0.00, 0.00, 0.006, 0.014, 0.962, 19:38:12.697, 1565912292697
136, 0.00, 0.00, -9420.66, -27708.27, 3972.71, 0.00, 0.00, 0.00, 0.000, 0.000, 0.000, 19:38:12.704, 1565912292704
137, 0.00, 0.00, -9544.04, -27720.25, 3961.00, 0.00, 0.00, 0.00, 0.000, 0.000, 0.000, 19:38:12.704, 1565912292704
138, 0.00, 0.00, -9505.48, -27710.89, 3966.16, 0.00, 0.00, 0.00, 0.000, 0.000, 0.000, 19:38:12.711, 1565912292711
139, 0.00, 0.00, -9378.59, -27700.29, 3976.06, 0.00, 0.00, 0.00, 0.000, 0.000, 0.000, 19:38:12.711, 1565912292711
140, 0.00, 0.00, -9408.32, -27710.89, 3969.49, 0.00, 0.00, 0.00, 0.000, 0.000, 0.000, 19:38:12.719, 1565912292719
141, 0.00, 0.00, -9530.18, -27724.14, 3957.78, 0.00, 0.00, 0.00, 0.000, 0.000, 0.000, 19:38:12.719, 1565912292719
142, 0.00, 0.00, -9538.36, -27727.25, 3949.24, 0.00, 0.00, 0.00, 0.000, 0.000, 0.000, 19:38:12.727, 1565912292727
143, 0.00, 0.00, -9402.51, -27709.10, 3964.35, 0.00, 0.00, 0.00, 0.000, 0.000, 0.000, 19:38:12.727, 1565912292727
144, 0.00, 0.00, -9400.18, -27708.92, 3966.38, 0.00, 0.00, 0.00, 0.000, 0.000, 0.000, 19:38:12.734, 1565912292734
145, 0.00, 0.00, -9510.87, -27718.51, 3958.90, 0.00, 0.00, 0.00, 0.006, 0.016, 0.962, 19:38:12.734, 1565912292734
146, 0.00, 0.00, -9553.20, -27722.80, 3951.14, 0.00, 0.00, 0.00, 0.000, 0.000, 0.000, 19:38:12.740, 1565912292740
147, 0.00, 0.00, -9407.33, -27701.14, 3967.50, 0.00, 0.00, 0.00, 0.000, 0.000, 0.000, 19:38:12.749, 1565912292749
148, 0.00, 0.00, -9381.12, -27699.67, 3973.72, 0.00, 0.00, 0.00, 0.000, 0.000, 0.000, 19:38:12.749, 1565912292749
149, 0.00, 0.00, -9476.71, -27710.48, 3966.16, 0.00, 0.00, 0.00, 0.000, 0.000, 0.000, 19:38:12.757, 1565912292757
150, 0.00, 0.00, -9552.44, -27714.51, 3960.73, 0.00, 0.00, 0.00, 0.000, 0.000, 0.000, 19:38:12.757, 1565912292757
151, 0.00, 0.00, -9431.92, -27701.05, 3970.85, 0.00, 0.00, 0.00, 0.000, 0.000, 0.000, 19:38:12.764, 1565912292764
152, 0.00, 0.00, -9370.72, -27691.44, 3983.26, 0.00, 0.00, 0.00, 0.000, 0.000, 0.000, 19:38:12.764, 1565912292764
153, 0.00, 0.00, -9451.03, -27701.46, 3977.54, 0.00, 0.00, 0.00, 0.000, 0.000, 0.000, 19:38:12.774, 1565912292774
154, 0.00, 0.00, -9554.05, -27709.95, 3967.05, 0.00, 0.00, 0.00, 0.000, 0.000, 0.000, 19:38:12.774, 1565912292774
155, 0.00, 0.00, -9455.59, -27698.93, 3971.99, 0.00, 0.00, 0.00, 0.004, 0.016, 0.968, 19:38:12.779, 1565912292779
156, 0.00, 0.00, -9370.21, -27692.67, 3978.32, 0.00, 0.00, 0.00, 0.000, 0.000, 0.000, 19:38:12.779, 1565912292779
157, 0.00, 0.00, -9428.32, -27699.94, 3973.11, 0.00, 0.00, 0.00, 0.000, 0.000, 0.000, 19:38:12.787, 1565912292787
158, 0.00, 0.00, -9549.65, -27711.09, 3961.29, 0.00, 0.00, 0.00, 0.000, 0.000, 0.000, 19:38:12.787, 1565912292787
159, 0.00, 0.00, -9483.02, -27705.41, 3961.78, 0.00, 0.00, 0.00, 0.000, 0.000, 0.000, 19:38:12.794, 1565912292794
160, 0.00, 0.00, -9371.80, -27695.71, 3973.56, 0.00, 0.00, 0.00, 0.000, 0.000, 0.000, 19:38:12.794, 1565912292794
161, 0.00, 0.00, -9415.65, -27702.88, 3969.92, 0.00, 0.00, 0.00, 0.000, 0.000, 0.000, 19:38:12.801, 1565912292801
162, 0.00, 0.00, -9540.31, -27717.32, 3957.02, 0.00, 0.00, 0.00, 0.000, 0.000, 0.000, 19:38:12.801, 1565912292801
163, 0.00, 0.00, -9512.81, -27711.80, 3959.57, 0.00, 0.00, 0.00, 0.000, 0.000, 0.000, 19:38:12.809, 1565912292809
164, 0.00, 0.00, -9384.76, -27703.67, 3965.89, 0.00, 0.00, 0.00, 0.000, 0.000, 0.000, 19:38:12.816, 1565912292816
165, 0.00, 0.00, -9402.40, -27706.89, 3966.99, 0.00, 0.00, 0.00, 0.008, 0.014, 0.966, 19:38:12.816, 1565912292816
166, 0.00, 0.00, -9519.74, -27716.68, 3961.24, 0.00, 0.00, 0.00, 0.000, 0.000, 0.000, 19:38:12.823, 1565912292823
167, 0.00, 0.00, -9539.86, -27721.66, 3953.78, 0.00, 0.00, 0.00, 0.000, 0.000, 0.000, 19:38:12.824, 1565912292824
168, 0.00, 0.00, -9397.41, -27708.09, 3965.29, 0.00, 0.00, 0.00, 0.000, 0.000, 0.000, 19:38:12.831, 1565912292831
169, 0.00, 0.00, -9392.29, -27708.25, 3967.90, 0.00, 0.00, 0.00, 0.000, 0.000, 0.000, 19:38:12.831, 1565912292831
170, 0.00, 0.00, -9497.01, -27712.41, 3964.39, 0.00, 0.00, 0.00, 0.000, 0.000, 0.000, 19:38:12.839, 1565912292839
171, 0.00, 0.00, -9548.33, -27711.31, 3961.87, 0.00, 0.00, 0.00, 0.000, 0.000, 0.000, 19:38:12.839, 1565912292839
172, 0.00, 0.00, -9411.65, -27698.37, 3972.78, 0.00, 0.00, 0.00, 0.000, 0.000, 0.000, 19:38:12.846, 1565912292846
173, 0.00, 0.00, -9370.45, -27693.97, 3981.45, 0.00, 0.00, 0.00, 0.000, 0.000, 0.000, 19:38:12.846, 1565912292846
174, 0.00, 0.00, -9466.48, -27709.55, 3968.73, 0.00, 0.00, 0.00, 0.000, 0.000, 0.000, 19:38:12.854, 1565912292854
175, 0.00, 0.00, -9563.19, -27724.41, 3952.86, 0.00, 0.00, 0.00, 0.008, 0.014, 0.970, 19:38:12.854, 1565912292854
176, 0.00, 0.00, -9448.95, -27714.02, 3959.45, 0.00, 0.00, 0.00, 0.000, 0.000, 0.000, 19:38:12.862, 1565912292862
177, 0.00, 0.00, -9388.54, -27714.24, 3961.60, 0.00, 0.00, 0.00, 0.000, 0.000, 0.000, 19:38:12.862, 1565912292862
178, 0.00, 0.00, -9462.95, -27722.89, 3956.46, 0.00, 0.00, 0.00, 0.000, 0.000, 0.000, 19:38:12.869, 1565912292869
179, 0.00, 0.00, -9574.57, -27735.25, 3942.27, 0.00, 0.00, 0.00, 0.000, 0.000, 0.000, 19:38:12.876, 1565912292876
180, 0.00, 0.00, -9479.26, -27719.43, 3954.11, 0.00, 0.00, 0.00, 0.000, 0.000, 0.000, 19:38:12.876, 1565912292876
181, 0.00, 0.00, -9379.75, -27706.75, 3969.07, 0.00, 0.00, 0.00, 0.000, 0.000, 0.000, 19:38:12.884, 1565912292884
182, 0.00, 0.00, -9438.29, -27718.31, 3960.86, 0.00, 0.00, 0.00, 0.000, 0.000, 0.000, 19:38:12.884, 1565912292884
183, 0.00, 0.00, -9554.72, -27729.01, 3950.78, 0.00, 0.00, 0.00, 0.000, 0.000, 0.000, 19:38:12.892, 1565912292892
184, 0.00, 0.00, -9489.97, -27711.74, 3963.48, 0.00, 0.00, 0.00, 0.000, 0.000, 0.000, 19:38:12.892, 1565912292892
185, 0.00, 0.00, -9376.04, -27702.42, 3971.32, 0.00, 0.00, 0.00, 0.014, 0.016, 0.974, 19:38:12.899, 1565912292899
186, 0.00, 0.00, -9412.77, -27710.26, 3967.61, 0.00, 0.00, 0.00, 0.000, 0.000, 0.000, 19:38:12.899, 1565912292899
187, 0.00, 0.00, -9539.37, -27723.22, 3956.55, 0.00, 0.00, 0.00, 0.000, 0.000, 0.000, 19:38:12.906, 1565912292906
188, 0.00, 0.00, -9523.09, -27720.28, 3954.27, 0.00, 0.00, 0.00, 0.000, 0.000, 0.000, 19:38:12.907, 1565912292907
189, 0.00, 0.00, -9387.20, -27704.00, 3971.48, 0.00, 0.00, 0.00, 0.000, 0.000, 0.000, 19:38:12.914, 1565912292914
190, 0.00, 0.00, -9398.48, -27707.27, 3973.36, 0.00, 0.00, 0.00, 0.000, 0.000, 0.000, 19:38:12.914, 1565912292914
191, 0.00, 0.00, -9511.32, -27715.58, 3967.21, 0.00, 0.00, 0.00, 0.000, 0.000, 0.000, 19:38:12.922, 1565912292922
192, 0.00, 0.00, -9537.74, -27717.95, 3960.57, 0.00, 0.00, 0.00, 0.000, 0.000, 0.000, 19:38:12.923, 1565912292923
193, 0.00, 0.00, -9400.67, -27704.27, 3969.87, 0.00, 0.00, 0.00, 0.000, 0.000, 0.000, 19:38:12.929, 1565912292929
194, 0.00, 0.00, -9380.13, -27698.50, 3978.86, 0.00, 0.00, 0.00, 0.010, 0.018, 0.968, 19:38:12.936, 1565912292936
195, 0.00, 0.00, -9485.21, -27709.99, 3972.08, 0.00, 0.00, 0.00, 0.000, 0.000, 0.000, 19:38:12.936, 1565912292936
196, 0.00, 0.00, -9552.82, -27718.42, 3959.07, 0.00, 0.00, 0.00, 0.000, 0.000, 0.000, 19:38:12.944, 1565912292944
197, 0.00, 0.00, -9420.28, -27704.49, 3966.72, 0.00, 0.00, 0.00, 0.000, 0.000, 0.000, 19:38:12.944, 1565912292944
198, 0.00, 0.00, -9371.77, -27699.33, 3974.68, 0.00, 0.00, 0.00, 0.000, 0.000, 0.000, 19:38:12.951, 1565912292951
199, 0.00, 0.00, -9458.95, -27709.50, 3967.66, 0.00, 0.00, 0.00, 0.000, 0.000, 0.000, 19:38:12.951, 1565912292951
200, 0.00, 0.00, -9553.65, -27717.23, 3960.19, 0.00, 0.00, 0.00, 0.000, 0.000, 0.000, 19:38:12.958, 1565912292958
201, 0.00, 0.00, -9443.08, -27705.14, 3970.12, 0.00, 0.00, 0.00, 0.000, 0.000, 0.000, 19:38:12.958, 1565912292958
202, 0.00, 0.00, -9367.10, -27694.84, 3980.24, 0.00, 0.00, 0.00, 0.000, 0.000, 0.000, 19:38:12.966, 1565912292966
203, 0.00, 0.00, -9427.05, -27699.35, 3978.92, 0.00, 0.00, 0.00, 0.000, 0.000, 0.000, 19:38:12.966, 1565912292966
204, 0.00, 0.00, -9546.99, -27717.66, 3962.99, 0.00, 0.00, 0.00, 0.008, 0.014, 0.968, 19:38:12.974, 1565912292974
205, 0.00, 0.00, -9467.30, -27706.46, 3969.07, 0.00, 0.00, 0.00, 0.000, 0.000, 0.000, 19:38:12.975, 1565912292975
206, 0.00, 0.00, -9364.49, -27693.97, 3981.58, 0.00, 0.00, 0.00, 0.000, 0.000, 0.000, 19:38:12.981, 1565912292981
207, 0.00, 0.00, -9417.73, -27699.64, 3980.69, 0.00, 0.00, 0.00, 0.000, 0.000, 0.000, 19:38:12.981, 1565912292981
208, 0.00, 0.00, -9538.85, -27708.50, 3973.34, 0.00, 0.00, 0.00, 0.000, 0.000, 0.000, 19:38:12.988, 1565912292988
209, 0.00, 0.00, -9489.23, -27702.01, 3975.10, 0.00, 0.00, 0.00, 0.000, 0.000, 0.000, 19:38:12.996, 1565912292996
210, 0.00, 0.00, -9365.67, -27687.44, 3989.50, 0.00, 0.00, 0.00, 0.000, 0.000, 0.000, 19:38:12.996, 1565912292996
211, 0.00, 0.00, -9389.32, -27686.77, 3993.90, 0.00, 0.00, 0.00, 0.000, 0.000, 0.000, 19:38:13.004, 1565912293004
212, 0.00, 0.00, -9508.57, -27702.57, 3977.94, 0.00, 0.00, 0.00, 0.000, 0.000, 0.000, 19:38:13.004, 1565912293004
213, 0.00, 0.00, -9512.43, -27706.71, 3970.43, 0.00, 0.00, 0.00, 0.000, 0.000, 0.000, 19:38:13.011, 1565912293011
214, 0.00, 0.00, -9374.92, -27693.61, 3981.16, 0.00, 0.00, 0.00, 0.008, 0.014, 0.964, 19:38:13.011, 1565912293011
215, 0.00, 0.00, -9374.81, -27693.45, 3984.42, 0.00, 0.00, 0.00, 0.000, 0.000, 0.000, 19:38:13.019, 1565912293019
216, 0.00, 0.00, -9483.24, -27700.11, 3979.68, 0.00, 0.00, 0.00, 0.000, 0.000, 0.000, 19:38:13.019, 1565912293019
217, 0.00, 0.00, -9519.52, -27703.64, 3973.83, 0.00, 0.00, 0.00, 0.000, 0.000, 0.000, 19:38:13.027, 1565912293027
218, 0.00, 0.00, -9385.92, -27692.71, 3982.07, 0.00, 0.00, 0.00, 0.000, 0.000, 0.000, 19:38:13.027, 1565912293027
219, 0.00, 0.00, -9367.53, -27696.65, 3979.53, 0.00, 0.00, 0.00, 0.000, 0.000, 0.000, 19:38:13.034, 1565912293034
220, 0.00, 0.00, -9477.52, -27712.29, 3965.38, 0.00, 0.00, 0.00, 0.000, 0.000, 0.000, 19:38:13.034, 1565912293034
221, 0.00, 0.00, -9548.84, -27715.16, 3961.91, 0.00, 0.00, 0.00, 0.000, 0.000, 0.000, 19:38:13.041, 1565912293041
222, 0.00, 0.00, -9407.04, -27687.64, 3988.76, 0.00, 0.00, 0.00, 0.000, 0.000, 0.000, 19:38:13.041, 1565912293041
223, 0.00, 0.00, -9352.46, -27679.59, 3999.96, 0.00, 0.00, 0.00, 0.000, 0.000, 0.000, 19:38:13.048, 1565912293048
224, 0.00, 0.00, -9438.31, -27690.73, 3992.74, 0.00, 0.00, 0.00, 0.010, 0.014, 0.968, 19:38:13.049, 1565912293049
225, 0.00, 0.00, -9539.93, -27698.97, 3984.71, 0.00, 0.00, 0.00, 0.000, 0.000, 0.000, 19:38:13.056, 1565912293056
226, 0.00, 0.00, -9441.69, -27693.86, 3984.60, 0.00, 0.00, 0.00, 0.000, 0.000, 0.000, 19:38:13.064, 1565912293064
227, 0.00, 0.00, -9363.73, -27689.85, 3989.34, 0.00, 0.00, 0.00, 0.000, 0.000, 0.000, 19:38:13.064, 1565912293064
228, 0.00, 0.00, -9424.52, -27697.37, 3982.77, 0.00, 0.00, 0.00, 0.000, 0.000, 0.000, 19:38:13.071, 1565912293071
229, 0.00, 0.00, -9539.17, -27709.86, 3969.29, 0.00, 0.00, 0.00, 0.000, 0.000, 0.000, 19:38:13.071, 1565912293071
230, 0.00, 0.00, -9471.01, -27700.31, 3973.76, 0.00, 0.00, 0.00, 0.000, 0.000, 0.000, 19:38:13.079, 1565912293079
231, 0.00, 0.00, -9358.63, -27688.27, 3984.89, 0.00, 0.00, 0.00, 0.000, 0.000, 0.000, 19:38:13.079, 1565912293079
232, 0.00, 0.00, -9396.94, -27690.97, 3984.82, 0.00, 0.00, 0.00, 0.000, 0.000, 0.000, 19:38:13.087, 1565912293087
233, 0.00, 0.00, -9521.66, -27701.43, 3975.08, 0.00, 0.00, 0.00, 0.000, 0.000, 0.000, 19:38:13.087, 1565912293087
234, 0.00, 0.00, -9491.98, -27700.09, 3974.01, 0.00, 0.00, 0.00, 0.004, 0.014, 0.972, 19:38:13.094, 1565912293094
235, 0.00, 0.00, -9363.64, -27685.92, 3990.10, 0.00, 0.00, 0.00, 0.000, 0.000, 0.000, 19:38:13.094, 1565912293094
236, 0.00, 0.00, -9388.31, -27690.70, 3988.87, 0.00, 0.00, 0.00, 0.000, 0.000, 0.000, 19:38:13.102, 1565912293102
237, 0.00, 0.00, -9506.64, -27703.89, 3977.52, 0.00, 0.00, 0.00, 0.000, 0.000, 0.000, 19:38:13.102, 1565912293102
238, 0.00, 0.00, -9517.62, -27708.54, 3972.15, 0.00, 0.00, 0.00, 0.000, 0.000, 0.000, 19:38:13.110, 1565912293110
239, 0.00, 0.00, -9390.46, -27707.15, 3971.55, 0.00, 0.00, 0.00, 0.000, 0.000, 0.000, 19:38:13.110, 1565912293110
240, 0.00, 0.00, -9387.08, -27706.04, 3975.53, 0.00, 0.00, 0.00, 0.000, 0.000, 0.000, 19:38:13.116, 1565912293116
241, 0.00, 0.00, -9495.07, -27716.30, 3965.20, 0.00, 0.00, 0.00, 0.000, 0.000, 0.000, 19:38:13.123, 1565912293123
242, 0.00, 0.00, -9544.69, -27717.41, 3960.80, 0.00, 0.00, 0.00, 0.000, 0.000, 0.000, 19:38:13.123, 1565912293123
243, 0.00, 0.00, -9410.06, -27700.43, 3974.65, 0.00, 0.00, 0.00, 0.000, 0.000, 0.000, 19:38:13.131, 1565912293131
244, 0.00, 0.00, -9373.67, -27696.40, 3979.04, 0.00, 0.00, 0.00, 0.004, 0.014, 0.964, 19:38:13.131, 1565912293131
245, 0.00, 0.00, -9463.75, -27701.61, 3972.49, 0.00, 0.00, 0.00, 0.000, 0.000, 0.000, 19:38:13.140, 1565912293140
246, 0.00, 0.00, -9550.65, -27716.61, 3951.77, 0.00, 0.00, 0.00, 0.000, 0.000, 0.000, 19:38:13.140, 1565912293140
247, 0.00, 0.00, -9430.96, -27706.80, 3958.92, 0.00, 0.00, 0.00, 0.000, 0.000, 0.000, 19:38:13.146, 1565912293146
248, 0.00, 0.00, -9370.01, -27701.77, 3968.17, 0.00, 0.00, 0.00, 0.000, 0.000, 0.000, 19:38:13.146, 1565912293146
249, 0.00, 0.00, -9450.67, -27710.69, 3965.49, 0.00, 0.00, 0.00, 0.000, 0.000, 0.000, 19:38:13.154, 1565912293154
250, 0.00, 0.00, -9557.87, -27724.57, 3950.83, 0.00, 0.00, 0.00, 0.000, 0.000, 0.000, 19:38:13.154, 1565912293154
251, 0.00, 0.00, -9455.99, -27710.62, 3959.90, 0.00, 0.00, 0.00, 0.000, 0.000, 0.000, 19:38:13.162, 1565912293162
252, 0.00, 0.00, -9368.76, -27703.15, 3969.13, 0.00, 0.00, 0.00, 0.000, 0.000, 0.000, 19:38:13.162, 1565912293162
253, 0.00, 0.00, -9428.43, -27712.29, 3964.06, 0.00, 0.00, 0.00, 0.004, 0.014, 0.968, 19:38:13.169, 1565912293169
254, 0.00, 0.00, -9549.94, -27726.20, 3950.92, 0.00, 0.00, 0.00, 0.000, 0.000, 0.000, 19:38:13.169, 1565912293169
255, 0.00, 0.00, -9483.42, -27714.53, 3959.41, 0.00, 0.00, 0.00, 0.000, 0.000, 0.000, 19:38:13.176, 1565912293176
0, 0.00, 0.00, -9366.86, -27699.78, 3974.27, 0.00, 0.00, 0.00, 0.000, 0.000, 0.000, 19:38:13.184, 1565912293184
1, 0.00, 0.00, -9404.94, -27702.01, 3975.73, 0.00, 0.00, 0.00, 0.000, 0.000, 0.000, 19:38:13.184, 1565912293184
2, 0.00, 0.00, -9522.47, -27711.18, 3965.62, 0.00, 0.00, 0.00, 0.000, 0.000, 0.000, 19:38:13.192, 1565912293192
3, 0.00, 0.00, -9506.44, -27710.11, 3965.45, 0.00, 0.00, 0.00, 0.000, 0.000, 0.000, 19:38:13.192, 1565912293192
4, 0.00, 0.00, -9373.34, -27693.50, 3981.25, 0.00, 0.00, 0.00, 0.000, 0.000, 0.000, 19:38:13.199, 1565912293199
5, 0.00, 0.00, -9390.88, -27694.41, 3985.34, 0.00, 0.00, 0.00, 0.000, 0.000, 0.000, 19:38:13.199, 1565912293199
6, 0.00, 0.00, -9508.88, -27707.65, 3973.38, 0.00, 0.00, 0.00, 0.000, 0.000, 0.000, 19:38:13.206, 1565912293206
7, 0.00, 0.00, -9524.06, -27706.69, 3968.62, 0.00, 0.00, 0.00, 0.006, 0.016, 0.966, 19:38:13.206, 1565912293206
8, 0.00, 0.00, -9387.08, -27691.22, 3981.87, 0.00, 0.00, 0.00, 0.000, 0.000, 0.000, 19:38:13.214, 1565912293214
9, 0.00, 0.00, -9378.93, -27692.76, 3984.78, 0.00, 0.00, 0.00, 0.000, 0.000, 0.000, 19:38:13.214, 1565912293214
10, 0.00, 0.00, -9487.20, -27706.37, 3973.49, 0.00, 0.00, 0.00, 0.000, 0.000, 0.000, 19:38:13.223, 1565912293223
11, 0.00, 0.00, -9546.25, -27713.10, 3966.29, 0.00, 0.00, 0.00, 0.000, 0.000, 0.000, 19:38:13.223, 1565912293223
12, 0.00, 0.00, -9412.81, -27696.92, 3978.57, 0.00, 0.00, 0.00, 0.000, 0.000, 0.000, 19:38:13.229, 1565912293229
13, 0.00, 0.00, -9369.83, -27689.14, 3988.13, 0.00, 0.00, 0.00, 0.000, 0.000, 0.000, 19:38:13.229, 1565912293229
14, 0.00, 0.00, -9461.43, -27700.14, 3978.70, 0.00, 0.00, 0.00, 0.000, 0.000, 0.000, 19:38:13.236, 1565912293236
15, 0.00, 0.00, -9546.30, -27703.98, 3974.23, 0.00, 0.00, 0.00, 0.000, 0.000, 0.000, 19:38:13.244, 1565912293244
16, 0.00, 0.00, -9426.65, -27683.95, 3992.51, 0.00, 0.00, 0.00, 0.000, 0.000, 0.000, 19:38:13.244, 1565912293244
17, 0.00, 0.00, -9363.86, -27681.96, 3996.25, 0.00, 0.00, 0.00, 0.012, 0.014, 0.972, 19:38:13.253, 1565912293253
18, 0.00, 0.00, -9433.35, -27692.29, 3987.86, 0.00, 0.00, 0.00, 0.000, 0.000, 0.000, 19:38:13.253, 1565912293253
19, 0.00, 0.00, -9547.06, -27705.48, 3976.13, 0.00, 0.00, 0.00, 0.000, 0.000, 0.000, 19:38:13.259, 1565912293259
20, 0.00, 0.00, -9458.92, -27694.30, 3983.06, 0.00, 0.00, 0.00, 0.000, 0.000, 0.000, 19:38:13.259, 1565912293259
21, 0.00, 0.00, -9360.13, -27683.17, 3994.28, 0.00, 0.00, 0.00, 0.000, 0.000, 0.000, 19:38:13.267, 1565912293267
22, 0.00, 0.00, -9411.40, -27687.64, 3993.27, 0.00, 0.00, 0.00, 0.000, 0.000, 0.000, 19:38:13.267, 1565912293267
23, 0.00, 0.00, -9533.44, -27700.45, 3980.67, 0.00, 0.00, 0.00, 0.000, 0.000, 0.000, 19:38:13.274, 1565912293274
24, 0.00, 0.00, -9480.54, -27694.17, 3981.65, 0.00, 0.00, 0.00, 0.000, 0.000, 0.000, 19:38:13.275, 1565912293275
25, 0.00, 0.00, -9365.31, -27688.22, 3986.46, 0.00, 0.00, 0.00, 0.000, 0.000, 0.000, 19:38:13.281, 1565912293281
26, 0.00, 0.00, -9404.97, -27699.24, 3977.07, 0.00, 0.00, 0.00, 0.000, 0.000, 0.000, 19:38:13.281, 1565912293281
27, 0.00, 0.00, -9523.79, -27707.24, 3970.63, 0.00, 0.00, 0.00, 0.010, 0.018, 0.970, 19:38:13.289, 1565912293289
28, 0.00, 0.00, -9509.15, -27699.20, 3974.54, 0.00, 0.00, 0.00, 0.000, 0.000, 0.000, 19:38:13.289, 1565912293289
29, 0.00, 0.00, -9374.03, -27681.32, 3991.24, 0.00, 0.00, 0.00, 0.000, 0.000, 0.000, 19:38:13.296, 1565912293296
30, 0.00, 0.00, -9385.05, -27685.85, 3990.52, 0.00, 0.00, 0.00, 0.000, 0.000, 0.000, 19:38:13.296, 1565912293296
