%OpenBCI Raw EEG Data
%Number of channels = 8
%Sample Rate = 250.0 Hz
%First Column = SampleIndex
%Last Column = Timestamp 
%Other Columns = EEG data in microvolts followed by Accel Data (in G) interleaved with Aux Data
0, 0.00, 0.00, 0.00, 0.00, 0.00, 0.00, 0.00, 0.00, 0.006, 0.022, 0.964, 19:42:09.323, 1565912529323
1, 0.00, 0.00, -8693.87, -27502.48, 5391.67, 0.00, 0.00, 0.00, 0.000, 0.000, 0.000, 19:42:09.337, 1565912529337
2, 0.00, 0.00, -8747.33, -27509.01, 5380.36, 0.00, 0.00, 0.00, 0.000, 0.000, 0.000, 19:42:09.344, 1565912529344
3, 0.00, 0.00, -8567.74, -27493.67, 5397.63, 0.00, 0.00, 0.00, 0.000, 0.000, 0.000, 19:42:09.345, 1565912529345
4, 0.00, 0.00, -8529.27, -27487.32, 5408.00, 0.00, 0.00, 0.00, 0.000, 0.000, 0.000, 19:42:09.352, 1565912529352
5, 0.00, 0.00, -8666.17, -27498.66, 5397.14, 0.00, 0.00, 0.00, 0.000, 0.000, 0.000, 19:42:09.353, 1565912529353
6, 0.00, 0.00, -8763.65, -27508.80, 5382.26, 0.00, 0.00, 0.00, 0.000, 0.000, 0.000, 19:42:09.360, 1565912529360
7, 0.00, 0.00, -8595.50, -27492.55, 5396.23, 0.00, 0.00, 0.00, 0.000, 0.000, 0.000, 19:42:09.367, 1565912529367
8, 0.00, 0.00, -8524.08, -27492.15, 5398.15, 0.00, 0.00, 0.00, 0.010, 0.018, 0.958, 19:42:09.368, 1565912529368
9, 0.00, 0.00, -8638.01, -27504.63, 5387.08, 0.00, 0.00, 0.00, 0.000, 0.000, 0.000, 19:42:09.375, 1565912529375
10, 0.00, 0.00, -8772.81, -27514.37, 5374.14, 0.00, 0.00, 0.00, 0.000, 0.000, 0.000, 19:42:09.375, 1565912529375
11, 0.00, 0.00, -8636.58, -27505.74, 5382.39, 0.00, 0.00, 0.00, 0.000, 0.000, 0.000, 19:42:09.382, 1565912529382
12, 0.00, 0.00, -8523.48, -27494.03, 5396.92, 0.00, 0.00, 0.00, 0.000, 0.000, 0.000, 19:42:09.382, 1565912529382
13, 0.00, 0.00, -8601.08, -27496.80, 5396.14, 0.00, 0.00, 0.00, 0.000, 0.000, 0.000, 19:42:09.389, 1565912529389
14, 0.00, 0.00, -8763.13, -27510.10, 5380.38, 0.00, 0.00, 0.00, 0.000, 0.000, 0.000, 19:42:09.389, 1565912529389
15, 0.00, 0.00, -8665.26, -27500.60, 5387.19, 0.00, 0.00, 0.00, 0.000, 0.000, 0.000, 19:42:09.397, 1565912529397
16, 0.00, 0.00, -8531.48, -27490.99, 5399.33, 0.00, 0.00, 0.00, 0.000, 0.000, 0.000, 19:42:09.397, 1565912529397
17, 0.00, 0.00, -8579.92, -27496.49, 5395.67, 0.00, 0.00, 0.00, 0.012, 0.020, 0.966, 19:42:09.404, 1565912529404
18, 0.00, 0.00, -8749.75, -27509.83, 5381.25, 0.00, 0.00, 0.00, 0.000, 0.000, 0.000, 19:42:09.404, 1565912529404
19, 0.00, 0.00, -8701.09, -27508.04, 5380.22, 0.00, 0.00, 0.00, 0.000, 0.000, 0.000, 19:42:09.411, 1565912529411
20, 0.00, 0.00, -8541.65, -27496.96, 5391.96, 0.00, 0.00, 0.00, 0.000, 0.000, 0.000, 19:42:09.411, 1565912529411
21, 0.00, 0.00, -8560.81, -27493.40, 5396.67, 0.00, 0.00, 0.00, 0.000, 0.000, 0.000, 19:42:09.418, 1565912529418
22, 0.00, 0.00, -8727.22, -27505.43, 5381.00, 0.00, 0.00, 0.00, 0.000, 0.000, 0.000, 19:42:09.426, 1565912529426
23, 0.00, 0.00, -8730.88, -27508.00, 5376.33, 0.00, 0.00, 0.00, 0.000, 0.000, 0.000, 19:42:09.426, 1565912529426
24, 0.00, 0.00, -8554.55, -27495.28, 5392.65, 0.00, 0.00, 0.00, 0.000, 0.000, 0.000, 19:42:09.436, 1565912529436
25, 0.00, 0.00, -8549.43, -27493.56, 5397.81, 0.00, 0.00, 0.00, 0.000, 0.000, 0.000, 19:42:09.436, 1565912529436
26, 0.00, 0.00, -8707.17, -27510.17, 5380.53, 0.00, 0.00, 0.00, 0.000, 0.000, 0.000, 19:42:09.451, 1565912529451
27, 0.00, 0.00, -8762.24, -27512.72, 5374.92, 0.00, 0.00, 0.00, 0.006, 0.018, 0.962, 19:42:09.457, 1565912529457
28, 0.00, 0.00, -8586.60, -27496.40, 5395.11, 0.00, 0.00, 0.00, 0.000, 0.000, 0.000, 19:42:09.457, 1565912529457
29, 0.00, 0.00, -8540.91, -27494.10, 5402.22, 0.00, 0.00, 0.00, 0.000, 0.000, 0.000, 19:42:09.463, 1565912529463
30, 0.00, 0.00, -8674.20, -27502.99, 5395.26, 0.00, 0.00, 0.00, 0.000, 0.000, 0.000, 19:42:09.469, 1565912529469
31, 0.00, 0.00, -8776.34, -27510.17, 5385.34, 0.00, 0.00, 0.00, 0.000, 0.000, 0.000, 19:42:09.469, 1565912529469
32, 0.00, 0.00, -8612.13, -27498.57, 5395.20, 0.00, 0.00, 0.00, 0.000, 0.000, 0.000, 19:42:09.475, 1565912529475
33, 0.00, 0.00, -8538.95, -27492.20, 5404.41, 0.00, 0.00, 0.00, 0.000, 0.000, 0.000, 19:42:09.475, 1565912529475
34, 0.00, 0.00, -8651.02, -27504.92, 5392.49, 0.00, 0.00, 0.00, 0.000, 0.000, 0.000, 19:42:09.481, 1565912529481
35, 0.00, 0.00, -8791.48, -27518.10, 5373.27, 0.00, 0.00, 0.00, 0.000, 0.000, 0.000, 19:42:09.481, 1565912529481
36, 0.00, 0.00, -8652.16, -27503.69, 5386.39, 0.00, 0.00, 0.00, 0.000, 0.000, 0.000, 19:42:09.487, 1565912529487
37, 0.00, 0.00, -8536.38, -27488.24, 5403.71, 0.00, 0.00, 0.00, 0.010, 0.022, 0.970, 19:42:09.488, 1565912529488
38, 0.00, 0.00, -8611.84, -27496.76, 5395.46, 0.00, 0.00, 0.00, 0.000, 0.000, 0.000, 19:42:09.494, 1565912529494
39, 0.00, 0.00, -8780.86, -27516.18, 5372.49, 0.00, 0.00, 0.00, 0.000, 0.000, 0.000, 19:42:09.494, 1565912529494
40, 0.00, 0.00, -8683.00, -27503.91, 5382.64, 0.00, 0.00, 0.00, 0.000, 0.000, 0.000, 19:42:09.500, 1565912529500
41, 0.00, 0.00, -8535.06, -27491.95, 5399.69, 0.00, 0.00, 0.00, 0.000, 0.000, 0.000, 19:42:09.500, 1565912529500
42, 0.00, 0.00, -8582.38, -27496.20, 5397.97, 0.00, 0.00, 0.00, 0.000, 0.000, 0.000, 19:42:09.506, 1565912529506
43, 0.00, 0.00, -8753.70, -27509.72, 5382.77, 0.00, 0.00, 0.00, 0.000, 0.000, 0.000, 19:42:09.506, 1565912529506
44, 0.00, 0.00, -8713.76, -27508.69, 5378.97, 0.00, 0.00, 0.00, 0.000, 0.000, 0.000, 19:42:09.512, 1565912529512
45, 0.00, 0.00, -8550.06, -27498.77, 5391.67, 0.00, 0.00, 0.00, 0.000, 0.000, 0.000, 19:42:09.513, 1565912529513
46, 0.00, 0.00, -8566.10, -27497.29, 5397.54, 0.00, 0.00, 0.00, 0.000, 0.000, 0.000, 19:42:09.519, 1565912529519
47, 0.00, 0.00, -8735.89, -27510.44, 5383.17, 0.00, 0.00, 0.00, 0.014, 0.024, 0.966, 19:42:09.527, 1565912529527
48, 0.00, 0.00, -8745.05, -27512.31, 5375.73, 0.00, 0.00, 0.00, 0.000, 0.000, 0.000, 19:42:09.527, 1565912529527
49, 0.00, 0.00, -8562.53, -27494.03, 5392.98, 0.00, 0.00, 0.00, 0.000, 0.000, 0.000, 19:42:09.535, 1565912529535
50, 0.00, 0.00, -8547.17, -27489.49, 5399.47, 0.00, 0.00, 0.00, 0.000, 0.000, 0.000, 19:42:09.535, 1565912529535
51, 0.00, 0.00, -8693.82, -27503.35, 5387.57, 0.00, 0.00, 0.00, 0.000, 0.000, 0.000, 19:42:09.543, 1565912529543
52, 0.00, 0.00, -8756.30, -27505.92, 5382.93, 0.00, 0.00, 0.00, 0.000, 0.000, 0.000, 19:42:09.544, 1565912529544
53, 0.00, 0.00, -8584.83, -27496.96, 5392.65, 0.00, 0.00, 0.00, 0.000, 0.000, 0.000, 19:42:09.549, 1565912529549
54, 0.00, 0.00, -8532.44, -27490.23, 5402.17, 0.00, 0.00, 0.00, 0.000, 0.000, 0.000, 19:42:09.550, 1565912529550
55, 0.00, 0.00, -8659.20, -27501.21, 5393.79, 0.00, 0.00, 0.00, 0.000, 0.000, 0.000, 19:42:09.556, 1565912529556
56, 0.00, 0.00, -8770.31, -27509.16, 5383.66, 0.00, 0.00, 0.00, 0.000, 0.000, 0.000, 19:42:09.556, 1565912529556
57, 0.00, 0.00, -8606.29, -27493.11, 5400.07, 0.00, 0.00, 0.00, 0.014, 0.026, 0.964, 19:42:09.564, 1565912529564
58, 0.00, 0.00, -8525.69, -27484.29, 5413.10, 0.00, 0.00, 0.00, 0.000, 0.000, 0.000, 19:42:09.564, 1565912529564
59, 0.00, 0.00, -8628.38, -27494.81, 5402.01, 0.00, 0.00, 0.00, 0.000, 0.000, 0.000, 19:42:09.571, 1565912529571
60, 0.00, 0.00, -8772.52, -27509.39, 5382.88, 0.00, 0.00, 0.00, 0.000, 0.000, 0.000, 19:42:09.571, 1565912529571
61, 0.00, 0.00, -8639.96, -27498.88, 5391.06, 0.00, 0.00, 0.00, 0.000, 0.000, 0.000, 19:42:09.578, 1565912529578
62, 0.00, 0.00, -8517.27, -27482.61, 5413.84, 0.00, 0.00, 0.00, 0.000, 0.000, 0.000, 19:42:09.586, 1565912529586
63, 0.00, 0.00, -8589.60, -27485.54, 5414.04, 0.00, 0.00, 0.00, 0.000, 0.000, 0.000, 19:42:09.586, 1565912529586
64, 0.00, 0.00, -8759.02, -27499.64, 5396.52, 0.00, 0.00, 0.00, 0.000, 0.000, 0.000, 19:42:09.594, 1565912529594
65, 0.00, 0.00, -8670.08, -27492.96, 5399.58, 0.00, 0.00, 0.00, 0.000, 0.000, 0.000, 19:42:09.594, 1565912529594
66, 0.00, 0.00, -8516.62, -27479.14, 5414.96, 0.00, 0.00, 0.00, 0.000, 0.000, 0.000, 19:42:09.602, 1565912529602
67, 0.00, 0.00, -8559.71, -27485.20, 5410.57, 0.00, 0.00, 0.00, 0.016, 0.024, 0.964, 19:42:09.602, 1565912529602
68, 0.00, 0.00, -8742.50, -27509.03, 5384.78, 0.00, 0.00, 0.00, 0.000, 0.000, 0.000, 19:42:09.610, 1565912529610
69, 0.00, 0.00, -8707.14, -27508.49, 5381.72, 0.00, 0.00, 0.00, 0.000, 0.000, 0.000, 19:42:09.610, 1565912529610
70, 0.00, 0.00, -8529.67, -27490.25, 5403.49, 0.00, 0.00, 0.00, 0.000, 0.000, 0.000, 19:42:09.618, 1565912529618
71, 0.00, 0.00, -8554.57, -27499.53, 5398.82, 0.00, 0.00, 0.00, 0.000, 0.000, 0.000, 19:42:09.618, 1565912529618
72, 0.00, 0.00, -8733.25, -27510.12, 5389.09, 0.00, 0.00, 0.00, 0.000, 0.000, 0.000, 19:42:09.624, 1565912529624
73, 0.00, 0.00, -8747.67, -27506.93, 5391.89, 0.00, 0.00, 0.00, 0.000, 0.000, 0.000, 19:42:09.624, 1565912529624
74, 0.00, 0.00, -8556.67, -27490.41, 5409.39, 0.00, 0.00, 0.00, 0.000, 0.000, 0.000, 19:42:09.631, 1565912529631
75, 0.00, 0.00, -8534.63, -27488.24, 5412.99, 0.00, 0.00, 0.00, 0.000, 0.000, 0.000, 19:42:09.631, 1565912529631
76, 0.00, 0.00, -8699.08, -27500.29, 5401.05, 0.00, 0.00, 0.00, 0.012, 0.024, 0.962, 19:42:09.638, 1565912529638
77, 0.00, 0.00, -8769.66, -27505.47, 5393.16, 0.00, 0.00, 0.00, 0.000, 0.000, 0.000, 19:42:09.646, 1565912529646
78, 0.00, 0.00, -8576.61, -27488.42, 5409.39, 0.00, 0.00, 0.00, 0.000, 0.000, 0.000, 19:42:09.646, 1565912529646
79, 0.00, 0.00, -8529.43, -27489.40, 5409.17, 0.00, 0.00, 0.00, 0.000, 0.000, 0.000, 19:42:09.653, 1565912529653
80, 0.00, 0.00, -8668.10, -27499.39, 5399.42, 0.00, 0.00, 0.00, 0.000, 0.000, 0.000, 19:42:09.653, 1565912529653
81, 0.00, 0.00, -8784.73, -27504.07, 5390.97, 0.00, 0.00, 0.00, 0.000, 0.000, 0.000, 19:42:09.661, 1565912529661
82, 0.00, 0.00, -8615.50, -27494.92, 5398.30, 0.00, 0.00, 0.00, 0.000, 0.000, 0.000, 19:42:09.661, 1565912529661
83, 0.00, 0.00, -8528.46, -27492.69, 5402.44, 0.00, 0.00, 0.00, 0.000, 0.000, 0.000, 19:42:09.670, 1565912529670
84, 0.00, 0.00, -8631.66, -27498.32, 5397.32, 0.00, 0.00, 0.00, 0.000, 0.000, 0.000, 19:42:09.670, 1565912529670
85, 0.00, 0.00, -8784.86, -27508.51, 5382.99, 0.00, 0.00, 0.00, 0.000, 0.000, 0.000, 19:42:09.677, 1565912529677
86, 0.00, 0.00, -8645.36, -27500.91, 5386.46, 0.00, 0.00, 0.00, 0.010, 0.020, 0.966, 19:42:09.677, 1565912529677
87, 0.00, 0.00, -8521.69, -27492.55, 5399.44, 0.00, 0.00, 0.00, 0.000, 0.000, 0.000, 19:42:09.685, 1565912529685
88, 0.00, 0.00, -8599.54, -27495.53, 5400.02, 0.00, 0.00, 0.00, 0.000, 0.000, 0.000, 19:42:09.685, 1565912529685
89, 0.00, 0.00, -8770.71, -27505.25, 5388.78, 0.00, 0.00, 0.00, 0.000, 0.000, 0.000, 19:42:09.692, 1565912529692
90, 0.00, 0.00, -8673.68, -27493.74, 5396.60, 0.00, 0.00, 0.00, 0.000, 0.000, 0.000, 19:42:09.693, 1565912529693
91, 0.00, 0.00, -8521.36, -27484.75, 5408.92, 0.00, 0.00, 0.00, 0.000, 0.000, 0.000, 19:42:09.701, 1565912529701
92, 0.00, 0.00, -8566.62, -27486.50, 5409.44, 0.00, 0.00, 0.00, 0.000, 0.000, 0.000, 19:42:09.707, 1565912529707
93, 0.00, 0.00, -8745.12, -27496.04, 5395.51, 0.00, 0.00, 0.00, 0.000, 0.000, 0.000, 19:42:09.707, 1565912529707
94, 0.00, 0.00, -8701.85, -27487.48, 5399.20, 0.00, 0.00, 0.00, 0.000, 0.000, 0.000, 19:42:09.713, 1565912529713
95, 0.00, 0.00, -8521.92, -27474.76, 5413.86, 0.00, 0.00, 0.00, 0.000, 0.000, 0.000, 19:42:09.714, 1565912529714
96, 0.00, 0.00, -8543.60, -27483.39, 5411.67, 0.00, 0.00, 0.00, 0.012, 0.018, 0.966, 19:42:09.721, 1565912529721
97, 0.00, 0.00, -8719.95, -27497.05, 5399.02, 0.00, 0.00, 0.00, 0.000, 0.000, 0.000, 19:42:09.721, 1565912529721
98, 0.00, 0.00, -8737.92, -27493.25, 5399.09, 0.00, 0.00, 0.00, 0.000, 0.000, 0.000, 19:42:09.729, 1565912529729
99, 0.00, 0.00, -8543.60, -27478.43, 5414.64, 0.00, 0.00, 0.00, 0.000, 0.000, 0.000, 19:42:09.729, 1565912529729
100, 0.00, 0.00, -8520.35, -27476.71, 5421.10, 0.00, 0.00, 0.00, 0.000, 0.000, 0.000, 19:42:09.737, 1565912529737
101, 0.00, 0.00, -8678.13, -27490.95, 5405.70, 0.00, 0.00, 0.00, 0.000, 0.000, 0.000, 19:42:09.737, 1565912529737
102, 0.00, 0.00, -8752.23, -27493.00, 5397.30, 0.00, 0.00, 0.00, 0.000, 0.000, 0.000, 19:42:09.745, 1565912529745
103, 0.00, 0.00, -8574.80, -27476.42, 5414.82, 0.00, 0.00, 0.00, 0.000, 0.000, 0.000, 19:42:09.745, 1565912529745
104, 0.00, 0.00, -8520.98, -27473.38, 5422.22, 0.00, 0.00, 0.00, 0.000, 0.000, 0.000, 19:42:09.752, 1565912529752
105, 0.00, 0.00, -8641.25, -27486.52, 5408.85, 0.00, 0.00, 0.00, 0.000, 0.000, 0.000, 19:42:09.752, 1565912529752
106, 0.00, 0.00, -8761.79, -27495.93, 5396.52, 0.00, 0.00, 0.00, 0.008, 0.012, 0.964, 19:42:09.759, 1565912529759
107, 0.00, 0.00, -8614.47, -27487.66, 5405.90, 0.00, 0.00, 0.00, 0.000, 0.000, 0.000, 19:42:09.759, 1565912529759
108, 0.00, 0.00, -8522.41, -27482.74, 5413.46, 0.00, 0.00, 0.00, 0.000, 0.000, 0.000, 19:42:09.767, 1565912529767
109, 0.00, 0.00, -8614.29, -27488.98, 5406.84, 0.00, 0.00, 0.00, 0.000, 0.000, 0.000, 19:42:09.775, 1565912529775
110, 0.00, 0.00, -8774.49, -27509.68, 5383.17, 0.00, 0.00, 0.00, 0.000, 0.000, 0.000, 19:42:09.775, 1565912529775
111, 0.00, 0.00, -8651.47, -27494.59, 5397.63, 0.00, 0.00, 0.00, 0.000, 0.000, 0.000, 19:42:09.783, 1565912529783
112, 0.00, 0.00, -8514.96, -27469.42, 5428.30, 0.00, 0.00, 0.00, 0.000, 0.000, 0.000, 19:42:09.783, 1565912529783
113, 0.00, 0.00, -8578.76, -27476.98, 5422.20, 0.00, 0.00, 0.00, 0.000, 0.000, 0.000, 19:42:09.789, 1565912529789
114, 0.00, 0.00, -8748.36, -27490.43, 5406.95, 0.00, 0.00, 0.00, 0.000, 0.000, 0.000, 19:42:09.789, 1565912529789
115, 0.00, 0.00, -8669.50, -27482.25, 5409.93, 0.00, 0.00, 0.00, 0.000, 0.000, 0.000, 19:42:09.796, 1565912529796
116, 0.00, 0.00, -8520.84, -27476.35, 5417.24, 0.00, 0.00, 0.00, 0.014, 0.016, 0.970, 19:42:09.796, 1565912529796
117, 0.00, 0.00, -8556.92, -27480.53, 5413.50, 0.00, 0.00, 0.00, 0.000, 0.000, 0.000, 19:42:09.804, 1565912529804
118, 0.00, 0.00, -8732.40, -27496.80, 5396.23, 0.00, 0.00, 0.00, 0.000, 0.000, 0.000, 19:42:09.804, 1565912529804
119, 0.00, 0.00, -8713.98, -27497.36, 5390.91, 0.00, 0.00, 0.00, 0.000, 0.000, 0.000, 19:42:09.811, 1565912529811
120, 0.00, 0.00, -8546.93, -27488.49, 5398.48, 0.00, 0.00, 0.00, 0.000, 0.000, 0.000, 19:42:09.811, 1565912529811
121, 0.00, 0.00, -8552.02, -27490.28, 5400.87, 0.00, 0.00, 0.00, 0.000, 0.000, 0.000, 19:42:09.818, 1565912529818
122, 0.00, 0.00, -8711.23, -27504.20, 5387.40, 0.00, 0.00, 0.00, 0.000, 0.000, 0.000, 19:42:09.819, 1565912529819
123, 0.00, 0.00, -8748.09, -27510.10, 5378.52, 0.00, 0.00, 0.00, 0.000, 0.000, 0.000, 19:42:09.826, 1565912529826
124, 0.00, 0.00, -8570.37, -27496.76, 5394.50, 0.00, 0.00, 0.00, 0.000, 0.000, 0.000, 19:42:09.834, 1565912529834
125, 0.00, 0.00, -8544.92, -27495.62, 5398.93, 0.00, 0.00, 0.00, 0.000, 0.000, 0.000, 19:42:09.834, 1565912529834
126, 0.00, 0.00, -8693.82, -27508.45, 5385.34, 0.00, 0.00, 0.00, 0.008, 0.018, 0.966, 19:42:09.842, 1565912529842
127, 0.00, 0.00, -8773.93, -27512.47, 5378.68, 0.00, 0.00, 0.00, 0.000, 0.000, 0.000, 19:42:09.842, 1565912529842
128, 0.00, 0.00, -8598.85, -27498.81, 5394.75, 0.00, 0.00, 0.00, 0.000, 0.000, 0.000, 19:42:09.850, 1565912529850
129, 0.00, 0.00, -8539.08, -27497.61, 5401.37, 0.00, 0.00, 0.00, 0.000, 0.000, 0.000, 19:42:09.850, 1565912529850
130, 0.00, 0.00, -8658.55, -27510.68, 5389.36, 0.00, 0.00, 0.00, 0.000, 0.000, 0.000, 19:42:09.858, 1565912529858
131, 0.00, 0.00, -8788.66, -27519.65, 5376.29, 0.00, 0.00, 0.00, 0.000, 0.000, 0.000, 19:42:09.858, 1565912529858
132, 0.00, 0.00, -8635.86, -27504.42, 5387.35, 0.00, 0.00, 0.00, 0.000, 0.000, 0.000, 19:42:09.865, 1565912529865
133, 0.00, 0.00, -8537.29, -27499.84, 5394.17, 0.00, 0.00, 0.00, 0.000, 0.000, 0.000, 19:42:09.866, 1565912529866
134, 0.00, 0.00, -8629.54, -27509.45, 5387.13, 0.00, 0.00, 0.00, 0.000, 0.000, 0.000, 19:42:09.871, 1565912529871
135, 0.00, 0.00, -8784.77, -27526.15, 5365.16, 0.00, 0.00, 0.00, 0.000, 0.000, 0.000, 19:42:09.872, 1565912529872
136, 0.00, 0.00, -8667.76, -27513.74, 5374.54, 0.00, 0.00, 0.00, 0.006, 0.020, 0.962, 19:42:09.879, 1565912529879
137, 0.00, 0.00, -8539.01, -27498.48, 5393.05, 0.00, 0.00, 0.00, 0.000, 0.000, 0.000, 19:42:09.879, 1565912529879
138, 0.00, 0.00, -8599.07, -27500.56, 5391.11, 0.00, 0.00, 0.00, 0.000, 0.000, 0.000, 19:42:09.886, 1565912529886
139, 0.00, 0.00, -8771.81, -27519.36, 5368.24, 0.00, 0.00, 0.00, 0.000, 0.000, 0.000, 19:42:09.894, 1565912529894
140, 0.00, 0.00, -8701.78, -27512.69, 5371.77, 0.00, 0.00, 0.00, 0.000, 0.000, 0.000, 19:42:09.894, 1565912529894
141, 0.00, 0.00, -8553.41, -27509.90, 5378.23, 0.00, 0.00, 0.00, 0.000, 0.000, 0.000, 19:42:09.900, 1565912529900
142, 0.00, 0.00, -8591.43, -27518.62, 5371.08, 0.00, 0.00, 0.00, 0.000, 0.000, 0.000, 19:42:09.900, 1565912529900
143, 0.00, 0.00, -8764.16, -27534.31, 5353.20, 0.00, 0.00, 0.00, 0.000, 0.000, 0.000, 19:42:09.908, 1565912529908
144, 0.00, 0.00, -8747.58, -27532.12, 5351.97, 0.00, 0.00, 0.00, 0.000, 0.000, 0.000, 19:42:09.909, 1565912529909
145, 0.00, 0.00, -8574.38, -27515.91, 5369.25, 0.00, 0.00, 0.00, 0.008, 0.020, 0.964, 19:42:09.916, 1565912529916
146, 0.00, 0.00, -8574.22, -27519.06, 5367.75, 0.00, 0.00, 0.00, 0.000, 0.000, 0.000, 19:42:09.916, 1565912529916
147, 0.00, 0.00, -8732.51, -27530.40, 5356.68, 0.00, 0.00, 0.00, 0.000, 0.000, 0.000, 19:42:09.924, 1565912529924
148, 0.00, 0.00, -8768.34, -27530.33, 5353.78, 0.00, 0.00, 0.00, 0.000, 0.000, 0.000, 19:42:09.925, 1565912529925
149, 0.00, 0.00, -8586.27, -27515.22, 5369.92, 0.00, 0.00, 0.00, 0.000, 0.000, 0.000, 19:42:09.932, 1565912529932
150, 0.00, 0.00, -8554.35, -27512.69, 5377.05, 0.00, 0.00, 0.00, 0.000, 0.000, 0.000, 19:42:09.932, 1565912529932
151, 0.00, 0.00, -8691.23, -27520.70, 5367.73, 0.00, 0.00, 0.00, 0.000, 0.000, 0.000, 19:42:09.940, 1565912529940
152, 0.00, 0.00, -8774.20, -27519.94, 5364.13, 0.00, 0.00, 0.00, 0.000, 0.000, 0.000, 19:42:09.940, 1565912529940
153, 0.00, 0.00, -8598.20, -27498.81, 5385.07, 0.00, 0.00, 0.00, 0.000, 0.000, 0.000, 19:42:09.947, 1565912529947
154, 0.00, 0.00, -8543.35, -27502.30, 5386.79, 0.00, 0.00, 0.00, 0.000, 0.000, 0.000, 19:42:09.954, 1565912529954
155, 0.00, 0.00, -8663.65, -27514.97, 5375.84, 0.00, 0.00, 0.00, 0.008, 0.016, 0.968, 19:42:09.954, 1565912529954
156, 0.00, 0.00, -8789.29, -27520.36, 5366.68, 0.00, 0.00, 0.00, 0.000, 0.000, 0.000, 19:42:09.961, 1565912529961
157, 0.00, 0.00, -8643.55, -27508.85, 5379.35, 0.00, 0.00, 0.00, 0.000, 0.000, 0.000, 19:42:09.961, 1565912529961
158, 0.00, 0.00, -8542.46, -27500.18, 5391.71, 0.00, 0.00, 0.00, 0.000, 0.000, 0.000, 19:42:09.969, 1565912529969
159, 0.00, 0.00, -8628.51, -27505.54, 5387.19, 0.00, 0.00, 0.00, 0.000, 0.000, 0.000, 19:42:09.969, 1565912529969
160, 0.00, 0.00, -8780.68, -27514.86, 5372.87, 0.00, 0.00, 0.00, 0.000, 0.000, 0.000, 19:42:09.976, 1565912529976
161, 0.00, 0.00, -8670.49, -27504.78, 5379.13, 0.00, 0.00, 0.00, 0.000, 0.000, 0.000, 19:42:09.976, 1565912529976
162, 0.00, 0.00, -8538.72, -27497.09, 5391.67, 0.00, 0.00, 0.00, 0.000, 0.000, 0.000, 19:42:09.991, 1565912529991
163, 0.00, 0.00, -8600.19, -27503.04, 5389.21, 0.00, 0.00, 0.00, 0.000, 0.000, 0.000, 19:42:09.991, 1565912529991
164, 0.00, 0.00, -8769.55, -27514.91, 5374.50, 0.00, 0.00, 0.00, 0.000, 0.000, 0.000, 19:42:10.006, 1565912530006
165, 0.00, 0.00, -8703.79, -27505.25, 5381.61, 0.00, 0.00, 0.00, 0.008, 0.016, 0.970, 19:42:10.013, 1565912530013
166, 0.00, 0.00, -8547.96, -27496.02, 5396.45, 0.00, 0.00, 0.00, 0.000, 0.000, 0.000, 19:42:10.014, 1565912530014
167, 0.00, 0.00, -8569.93, -27494.41, 5401.68, 0.00, 0.00, 0.00, 0.000, 0.000, 0.000, 19:42:10.019, 1565912530019
168, 0.00, 0.00, -8742.08, -27507.75, 5387.15, 0.00, 0.00, 0.00, 0.000, 0.000, 0.000, 19:42:10.019, 1565912530019
169, 0.00, 0.00, -8733.41, -27509.54, 5380.49, 0.00, 0.00, 0.00, 0.000, 0.000, 0.000, 19:42:10.025, 1565912530025
170, 0.00, 0.00, -8554.71, -27493.40, 5396.52, 0.00, 0.00, 0.00, 0.000, 0.000, 0.000, 19:42:10.025, 1565912530025
171, 0.00, 0.00, -8551.75, -27491.91, 5402.93, 0.00, 0.00, 0.00, 0.000, 0.000, 0.000, 19:42:10.031, 1565912530031
172, 0.00, 0.00, -8706.43, -27501.25, 5391.29, 0.00, 0.00, 0.00, 0.000, 0.000, 0.000, 19:42:10.032, 1565912530032
173, 0.00, 0.00, -8746.28, -27500.15, 5386.57, 0.00, 0.00, 0.00, 0.000, 0.000, 0.000, 19:42:10.038, 1565912530038
174, 0.00, 0.00, -8567.33, -27483.12, 5405.37, 0.00, 0.00, 0.00, 0.000, 0.000, 0.000, 19:42:10.038, 1565912530038
175, 0.00, 0.00, -8533.49, -27481.40, 5410.26, 0.00, 0.00, 0.00, 0.006, 0.018, 0.968, 19:42:10.044, 1565912530044
176, 0.00, 0.00, -8672.16, -27499.48, 5391.80, 0.00, 0.00, 0.00, 0.000, 0.000, 0.000, 19:42:10.044, 1565912530044
177, 0.00, 0.00, -8764.28, -27508.51, 5376.31, 0.00, 0.00, 0.00, 0.000, 0.000, 0.000, 19:42:10.050, 1565912530050
178, 0.00, 0.00, -8589.48, -27487.64, 5395.67, 0.00, 0.00, 0.00, 0.000, 0.000, 0.000, 19:42:10.050, 1565912530050
179, 0.00, 0.00, -8515.32, -27475.28, 5412.21, 0.00, 0.00, 0.00, 0.000, 0.000, 0.000, 19:42:10.056, 1565912530056
180, 0.00, 0.00, -8634.30, -27490.88, 5398.88, 0.00, 0.00, 0.00, 0.000, 0.000, 0.000, 19:42:10.062, 1565912530062
181, 0.00, 0.00, -8764.88, -27501.63, 5386.17, 0.00, 0.00, 0.00, 0.000, 0.000, 0.000, 19:42:10.063, 1565912530063
182, 0.00, 0.00, -8621.98, -27490.50, 5400.05, 0.00, 0.00, 0.00, 0.000, 0.000, 0.000, 19:42:10.069, 1565912530069
183, 0.00, 0.00, -8517.85, -27484.73, 5407.33, 0.00, 0.00, 0.00, 0.000, 0.000, 0.000, 19:42:10.069, 1565912530069
184, 0.00, 0.00, -8603.16, -27492.96, 5398.37, 0.00, 0.00, 0.00, 0.000, 0.000, 0.000, 19:42:10.075, 1565912530075
185, 0.00, 0.00, -8759.38, -27500.67, 5387.08, 0.00, 0.00, 0.00, 0.006, 0.020, 0.958, 19:42:10.075, 1565912530075
186, 0.00, 0.00, -8651.78, -27489.05, 5394.53, 0.00, 0.00, 0.00, 0.000, 0.000, 0.000, 19:42:10.081, 1565912530081
187, 0.00, 0.00, -8525.00, -27483.12, 5404.12, 0.00, 0.00, 0.00, 0.000, 0.000, 0.000, 19:42:10.082, 1565912530082
188, 0.00, 0.00, -8577.91, -27487.59, 5403.27, 0.00, 0.00, 0.00, 0.000, 0.000, 0.000, 19:42:10.088, 1565912530088
189, 0.00, 0.00, -8746.24, -27496.96, 5392.47, 0.00, 0.00, 0.00, 0.000, 0.000, 0.000, 19:42:10.088, 1565912530088
190, 0.00, 0.00, -8687.27, -27490.48, 5396.76, 0.00, 0.00, 0.00, 0.000, 0.000, 0.000, 19:42:10.097, 1565912530097
191, 0.00, 0.00, -8524.31, -27478.81, 5410.08, 0.00, 0.00, 0.00, 0.000, 0.000, 0.000, 19:42:10.097, 1565912530097
192, 0.00, 0.00, -8552.47, -27480.42, 5409.35, 0.00, 0.00, 0.00, 0.000, 0.000, 0.000, 19:42:10.104, 1565912530104
193, 0.00, 0.00, -8719.82, -27491.86, 5396.56, 0.00, 0.00, 0.00, 0.000, 0.000, 0.000, 19:42:10.104, 1565912530104
194, 0.00, 0.00, -8711.86, -27487.04, 5397.97, 0.00, 0.00, 0.00, 0.000, 0.000, 0.000, 19:42:10.111, 1565912530111
195, 0.00, 0.00, -8531.82, -27471.37, 5416.03, 0.00, 0.00, 0.00, 0.002, 0.016, 0.966, 19:42:10.117, 1565912530117
196, 0.00, 0.00, -8526.39, -27473.67, 5416.56, 0.00, 0.00, 0.00, 0.000, 0.000, 0.000, 19:42:10.118, 1565912530118
197, 0.00, 0.00, -8684.93, -27493.90, 5395.73, 0.00, 0.00, 0.00, 0.000, 0.000, 0.000, 19:42:10.125, 1565912530125
198, 0.00, 0.00, -8745.12, -27501.96, 5383.75, 0.00, 0.00, 0.00, 0.000, 0.000, 0.000, 19:42:10.125, 1565912530125
199, 0.00, 0.00, -8559.06, -27478.36, 5407.49, 0.00, 0.00, 0.00, 0.000, 0.000, 0.000, 19:42:10.132, 1565912530132
200, 0.00, 0.00, -8512.64, -27472.84, 5416.36, 0.00, 0.00, 0.00, 0.000, 0.000, 0.000, 19:42:10.132, 1565912530132
201, 0.00, 0.00, -8655.18, -27489.49, 5399.02, 0.00, 0.00, 0.00, 0.000, 0.000, 0.000, 19:42:10.139, 1565912530139
202, 0.00, 0.00, -8754.24, -27495.30, 5389.01, 0.00, 0.00, 0.00, 0.000, 0.000, 0.000, 19:42:10.139, 1565912530139
203, 0.00, 0.00, -8590.27, -27482.81, 5403.27, 0.00, 0.00, 0.00, 0.000, 0.000, 0.000, 19:42:10.147, 1565912530147
204, 0.00, 0.00, -8523.61, -27483.84, 5408.54, 0.00, 0.00, 0.00, 0.004, 0.012, 0.968, 19:42:10.147, 1565912530147
205, 0.00, 0.00, -8629.40, -27493.65, 5400.94, 0.00, 0.00, 0.00, 0.000, 0.000, 0.000, 19:42:10.156, 1565912530156
206, 0.00, 0.00, -8765.84, -27502.95, 5389.54, 0.00, 0.00, 0.00, 0.000, 0.000, 0.000, 19:42:10.157, 1565912530157
207, 0.00, 0.00, -8623.46, -27486.28, 5404.67, 0.00, 0.00, 0.00, 0.000, 0.000, 0.000, 19:42:10.169, 1565912530169
208, 0.00, 0.00, -8517.15, -27476.69, 5420.81, 0.00, 0.00, 0.00, 0.000, 0.000, 0.000, 19:42:10.169, 1565912530169
209, 0.00, 0.00, -8594.56, -27481.65, 5418.04, 0.00, 0.00, 0.00, 0.000, 0.000, 0.000, 19:42:10.170, 1565912530170
210, 0.00, 0.00, -8755.76, -27496.33, 5400.38, 0.00, 0.00, 0.00, 0.000, 0.000, 0.000, 19:42:10.179, 1565912530179
211, 0.00, 0.00, -8652.78, -27481.22, 5411.56, 0.00, 0.00, 0.00, 0.000, 0.000, 0.000, 19:42:10.180, 1565912530180
212, 0.00, 0.00, -8517.49, -27472.17, 5421.59, 0.00, 0.00, 0.00, 0.000, 0.000, 0.000, 19:42:10.186, 1565912530186
213, 0.00, 0.00, -8571.63, -27482.77, 5412.85, 0.00, 0.00, 0.00, 0.000, 0.000, 0.000, 19:42:10.187, 1565912530187
214, 0.00, 0.00, -8745.37, -27500.36, 5394.41, 0.00, 0.00, 0.00, 0.006, 0.014, 0.970, 19:42:10.195, 1565912530195
215, 0.00, 0.00, -8694.69, -27494.01, 5399.69, 0.00, 0.00, 0.00, 0.000, 0.000, 0.000, 19:42:10.195, 1565912530195
216, 0.00, 0.00, -8531.24, -27480.02, 5416.59, 0.00, 0.00, 0.00, 0.000, 0.000, 0.000, 19:42:10.200, 1565912530200
217, 0.00, 0.00, -8549.92, -27484.69, 5416.07, 0.00, 0.00, 0.00, 0.000, 0.000, 0.000, 19:42:10.201, 1565912530201
218, 0.00, 0.00, -8715.28, -27500.15, 5399.38, 0.00, 0.00, 0.00, 0.000, 0.000, 0.000, 19:42:10.208, 1565912530208
219, 0.00, 0.00, -8719.35, -27495.60, 5398.13, 0.00, 0.00, 0.00, 0.000, 0.000, 0.000, 19:42:10.208, 1565912530208
220, 0.00, 0.00, -8543.37, -27479.50, 5413.35, 0.00, 0.00, 0.00, 0.000, 0.000, 0.000, 19:42:10.215, 1565912530215
221, 0.00, 0.00, -8530.34, -27479.99, 5414.02, 0.00, 0.00, 0.00, 0.000, 0.000, 0.000, 19:42:10.216, 1565912530216
222, 0.00, 0.00, -8689.84, -27499.95, 5394.73, 0.00, 0.00, 0.00, 0.000, 0.000, 0.000, 19:42:10.223, 1565912530223
223, 0.00, 0.00, -8747.51, -27504.11, 5387.71, 0.00, 0.00, 0.00, 0.000, 0.000, 0.000, 19:42:10.223, 1565912530223
224, 0.00, 0.00, -8567.16, -27487.71, 5404.96, 0.00, 0.00, 0.00, 0.016, 0.024, 0.966, 19:42:10.229, 1565912530229
225, 0.00, 0.00, -8522.43, -27483.77, 5414.51, 0.00, 0.00, 0.00, 0.000, 0.000, 0.000, 19:42:10.229, 1565912530229
226, 0.00, 0.00, -8656.45, -27493.70, 5405.64, 0.00, 0.00, 0.00, 0.000, 0.000, 0.000, 19:42:10.237, 1565912530237
227, 0.00, 0.00, -8748.88, -27494.77, 5396.96, 0.00, 0.00, 0.00, 0.000, 0.000, 0.000, 19:42:10.245, 1565912530245
228, 0.00, 0.00, -8581.19, -27480.98, 5407.62, 0.00, 0.00, 0.00, 0.000, 0.000, 0.000, 19:42:10.245, 1565912530245
229, 0.00, 0.00, -8509.67, -27481.22, 5412.54, 0.00, 0.00, 0.00, 0.000, 0.000, 0.000, 19:42:10.255, 1565912530255
230, 0.00, 0.00, -8611.68, -27487.71, 5406.66, 0.00, 0.00, 0.00, 0.000, 0.000, 0.000, 19:42:10.255, 1565912530255
231, 0.00, 0.00, -8750.33, -27496.18, 5393.99, 0.00, 0.00, 0.00, 0.000, 0.000, 0.000, 19:42:10.261, 1565912530261
232, 0.00, 0.00, -8621.89, -27489.29, 5399.73, 0.00, 0.00, 0.00, 0.000, 0.000, 0.000, 19:42:10.262, 1565912530262
233, 0.00, 0.00, -8513.73, -27483.28, 5408.59, 0.00, 0.00, 0.00, 0.000, 0.000, 0.000, 19:42:10.268, 1565912530268
234, 0.00, 0.00, -8595.83, -27494.63, 5398.21, 0.00, 0.00, 0.00, 0.012, 0.016, 0.968, 19:42:10.269, 1565912530269
235, 0.00, 0.00, -8760.77, -27507.78, 5382.23, 0.00, 0.00, 0.00, 0.000, 0.000, 0.000, 19:42:10.279, 1565912530279
236, 0.00, 0.00, -8663.69, -27495.15, 5392.60, 0.00, 0.00, 0.00, 0.000, 0.000, 0.000, 19:42:10.279, 1565912530279
238, 0.00, 0.00, -8568.72, -27487.30, 5406.28, 0.00, 0.00, 0.00, 0.000, 0.000, 0.000, 19:42:10.287, 1565912530287
239, 0.00, 0.00, -8738.97, -27500.02, 5392.45, 0.00, 0.00, 0.00, 0.000, 0.000, 0.000, 19:42:10.287, 1565912530287
240, 0.00, 0.00, -8689.78, -27491.59, 5397.43, 0.00, 0.00, 0.00, 0.000, 0.000, 0.000, 19:42:10.294, 1565912530294
241, 0.00, 0.00, -8523.30, -27478.68, 5412.52, 0.00, 0.00, 0.00, 0.000, 0.000, 0.000, 19:42:10.294, 1565912530294
242, 0.00, 0.00, -8541.65, -27479.66, 5415.72, 0.00, 0.00, 0.00, 0.000, 0.000, 0.000, 19:42:10.301, 1565912530301
243, 0.00, 0.00, -8708.55, -27492.33, 5401.16, 0.00, 0.00, 0.00, 0.000, 0.000, 0.000, 19:42:10.309, 1565912530309
244, 0.00, 0.00, -8718.70, -27493.20, 5395.82, 0.00, 0.00, 0.00, 0.012, 0.018, 0.964, 19:42:10.309, 1565912530309
245, 0.00, 0.00, -8532.46, -27470.90, 5419.00, 0.00, 0.00, 0.00, 0.000, 0.000, 0.000, 19:42:10.317, 1565912530317
246, 0.00, 0.00, -8517.06, -27468.79, 5424.86, 0.00, 0.00, 0.00, 0.000, 0.000, 0.000, 19:42:10.317, 1565912530317
247, 0.00, 0.00, -8674.91, -27489.52, 5404.16, 0.00, 0.00, 0.00, 0.000, 0.000, 0.000, 19:42:10.325, 1565912530325
248, 0.00, 0.00, -8739.51, -27494.59, 5393.97, 0.00, 0.00, 0.00, 0.000, 0.000, 0.000, 19:42:10.325, 1565912530325
249, 0.00, 0.00, -8557.86, -27477.58, 5410.15, 0.00, 0.00, 0.00, 0.000, 0.000, 0.000, 19:42:10.335, 1565912530335
250, 0.00, 0.00, -8509.67, -27472.89, 5419.25, 0.00, 0.00, 0.00, 0.000, 0.000, 0.000, 19:42:10.335, 1565912530335
251, 0.00, 0.00, -8634.37, -27483.28, 5410.15, 0.00, 0.00, 0.00, 0.000, 0.000, 0.000, 19:42:10.341, 1565912530341
252, 0.00, 0.00, -8749.10, -27494.34, 5396.52, 0.00, 0.00, 0.00, 0.000, 0.000, 0.000, 19:42:10.341, 1565912530341
253, 0.00, 0.00, -8587.67, -27478.74, 5410.37, 0.00, 0.00, 0.00, 0.000, 0.000, 0.000, 19:42:10.348, 1565912530348
254, 0.00, 0.00, -8500.10, -27469.33, 5422.91, 0.00, 0.00, 0.00, 0.012, 0.022, 0.966, 19:42:10.348, 1565912530348
255, 0.00, 0.00, -8605.00, -27482.83, 5411.63, 0.00, 0.00, 0.00, 0.000, 0.000, 0.000, 19:42:10.354, 1565912530354
0, 0.00, 0.00, -8750.46, -27491.86, 5399.31, 0.00, 0.00, 0.00, 0.000, 0.000, 0.000, 19:42:10.354, 1565912530354
1, 0.00, 0.00, -8615.86, -27477.09, 5411.63, 0.00, 0.00, 0.00, 0.000, 0.000, 0.000, 19:42:10.361, 1565912530361
2, 0.00, 0.00, -8501.11, -27470.61, 5420.72, 0.00, 0.00, 0.00, 0.000, 0.000, 0.000, 19:42:10.369, 1565912530369
3, 0.00, 0.00, -8583.81, -27484.58, 5411.71, 0.00, 0.00, 0.00, 0.000, 0.000, 0.000, 19:42:10.369, 1565912530369
4, 0.00, 0.00, -8752.07, -27502.61, 5390.15, 0.00, 0.00, 0.00, 0.000, 0.000, 0.000, 19:42:10.376, 1565912530376
5, 0.00, 0.00, -8656.85, -27493.29, 5398.42, 0.00, 0.00, 0.00, 0.000, 0.000, 0.000, 19:42:10.376, 1565912530376
6, 0.00, 0.00, -8504.48, -27479.48, 5414.96, 0.00, 0.00, 0.00, 0.000, 0.000, 0.000, 19:42:10.384, 1565912530384
7, 0.00, 0.00, -8551.55, -27481.87, 5414.17, 0.00, 0.00, 0.00, 0.010, 0.018, 0.970, 19:42:10.384, 1565912530384
8, 0.00, 0.00, -8737.88, -27493.96, 5400.65, 0.00, 0.00, 0.00, 0.000, 0.000, 0.000, 19:42:10.392, 1565912530392
9, 0.00, 0.00, -8696.84, -27489.54, 5398.93, 0.00, 0.00, 0.00, 0.000, 0.000, 0.000, 19:42:10.392, 1565912530392
10, 0.00, 0.00, -8516.10, -27475.05, 5416.41, 0.00, 0.00, 0.00, 0.000, 0.000, 0.000, 19:42:10.400, 1565912530400
11, 0.00, 0.00, -8537.32, -27481.58, 5411.65, 0.00, 0.00, 0.00, 0.000, 0.000, 0.000, 19:42:10.400, 1565912530400
12, 0.00, 0.00, -8708.55, -27492.33, 5398.24, 0.00, 0.00, 0.00, 0.000, 0.000, 0.000, 19:42:10.409, 1565912530409
13, 0.00, 0.00, -8725.38, -27495.82, 5391.06, 0.00, 0.00, 0.00, 0.000, 0.000, 0.000, 19:42:10.409, 1565912530409
14, 0.00, 0.00, -8536.22, -27485.00, 5404.94, 0.00, 0.00, 0.00, 0.000, 0.000, 0.000, 19:42:10.416, 1565912530416
15, 0.00, 0.00, -8519.61, -27483.08, 5411.71, 0.00, 0.00, 0.00, 0.000, 0.000, 0.000, 19:42:10.416, 1565912530416
16, 0.00, 0.00, -8675.09, -27493.63, 5399.98, 0.00, 0.00, 0.00, 0.000, 0.000, 0.000, 19:42:10.423, 1565912530423
17, 0.00, 0.00, -8745.81, -27499.57, 5391.33, 0.00, 0.00, 0.00, 0.006, 0.014, 0.968, 19:42:10.430, 1565912530430
18, 0.00, 0.00, -8553.39, -27481.25, 5409.79, 0.00, 0.00, 0.00, 0.000, 0.000, 0.000, 19:42:10.430, 1565912530430
19, 0.00, 0.00, -8502.42, -27473.80, 5422.40, 0.00, 0.00, 0.00, 0.000, 0.000, 0.000, 19:42:10.436, 1565912530436
20, 0.00, 0.00, -8641.05, -27487.30, 5410.55, 0.00, 0.00, 0.00, 0.000, 0.000, 0.000, 19:42:10.436, 1565912530436
21, 0.00, 0.00, -8759.92, -27497.43, 5396.49, 0.00, 0.00, 0.00, 0.000, 0.000, 0.000, 19:42:10.444, 1565912530444
22, 0.00, 0.00, -8585.77, -27482.72, 5408.88, 0.00, 0.00, 0.00, 0.000, 0.000, 0.000, 19:42:10.444, 1565912530444
23, 0.00, 0.00, -8501.78, -27479.44, 5417.17, 0.00, 0.00, 0.00, 0.000, 0.000, 0.000, 19:42:10.454, 1565912530454
24, 0.00, 0.00, -8614.79, -27491.17, 5409.88, 0.00, 0.00, 0.00, 0.000, 0.000, 0.000, 19:42:10.454, 1565912530454
25, 0.00, 0.00, -8769.77, -27503.91, 5395.96, 0.00, 0.00, 0.00, 0.000, 0.000, 0.000, 19:42:10.460, 1565912530460
26, 0.00, 0.00, -8628.26, -27496.67, 5402.77, 0.00, 0.00, 0.00, 0.000, 0.000, 0.000, 19:42:10.460, 1565912530460
27, 0.00, 0.00, -8501.40, -27486.14, 5415.36, 0.00, 0.00, 0.00, 0.010, 0.016, 0.972, 19:42:10.467, 1565912530467
28, 0.00, 0.00, -8577.84, -27488.98, 5414.87, 0.00, 0.00, 0.00, 0.000, 0.000, 0.000, 19:42:10.467, 1565912530467
29, 0.00, 0.00, -8753.28, -27502.39, 5398.04, 0.00, 0.00, 0.00, 0.000, 0.000, 0.000, 19:42:10.475, 1565912530475
30, 0.00, 0.00, -8657.88, -27489.00, 5406.24, 0.00, 0.00, 0.00, 0.000, 0.000, 0.000, 19:42:10.475, 1565912530475
31, 0.00, 0.00, -8500.21, -27476.95, 5421.82, 0.00, 0.00, 0.00, 0.000, 0.000, 0.000, 19:42:10.482, 1565912530482
32, 0.00, 0.00, -8545.83, -27478.90, 5422.47, 0.00, 0.00, 0.00, 0.000, 0.000, 0.000, 19:42:10.482, 1565912530482
33, 0.00, 0.00, -8737.97, -27501.05, 5395.96, 0.00, 0.00, 0.00, 0.000, 0.000, 0.000, 19:42:10.490, 1565912530490
34, 0.00, 0.00, -8706.36, -27499.33, 5394.75, 0.00, 0.00, 0.00, 0.000, 0.000, 0.000, 19:42:10.498, 1565912530498
35, 0.00, 0.00, -8523.05, -27484.15, 5413.50, 0.00, 0.00, 0.00, 0.000, 0.000, 0.000, 19:42:10.498, 1565912530498
36, 0.00, 0.00, -8536.51, -27487.10, 5412.68, 0.00, 0.00, 0.00, 0.000, 0.000, 0.000, 19:42:10.506, 1565912530506
37, 0.00, 0.00, -8712.33, -27503.71, 5396.29, 0.00, 0.00, 0.00, 0.008, 0.016, 0.972, 19:42:10.506, 1565912530506
38, 0.00, 0.00, -8730.41, -27502.64, 5393.50, 0.00, 0.00, 0.00, 0.000, 0.000, 0.000, 19:42:10.513, 1565912530513
39, 0.00, 0.00, -8533.87, -27482.79, 5411.85, 0.00, 0.00, 0.00, 0.000, 0.000, 0.000, 19:42:10.513, 1565912530513
40, 0.00, 0.00, -8515.32, -27481.74, 5416.86, 0.00, 0.00, 0.00, 0.000, 0.000, 0.000, 19:42:10.519, 1565912530519
41, 0.00, 0.00, -8674.24, -27495.71, 5404.45, 0.00, 0.00, 0.00, 0.000, 0.000, 0.000, 19:42:10.519, 1565912530519
42, 0.00, 0.00, -8751.62, -27504.40, 5392.49, 0.00, 0.00, 0.00, 0.000, 0.000, 0.000, 19:42:10.527, 1565912530527
43, 0.00, 0.00, -8567.67, -27493.25, 5403.02, 0.00, 0.00, 0.00, 0.000, 0.000, 0.000, 19:42:10.527, 1565912530527
44, 0.00, 0.00, -8513.47, -27489.38, 5410.15, 0.00, 0.00, 0.00, 0.000, 0.000, 0.000, 19:42:10.535, 1565912530535
45, 0.00, 0.00, -8643.58, -27500.94, 5399.38, 0.00, 0.00, 0.00, 0.000, 0.000, 0.000, 19:42:10.535, 1565912530535
46, 0.00, 0.00, -8764.68, -27508.16, 5388.36, 0.00, 0.00, 0.00, 0.000, 0.000, 0.000, 19:42:10.542, 1565912530542
47, 0.00, 0.00, -8591.76, -27489.25, 5405.59, 0.00, 0.00, 0.00, 0.008, 0.016, 0.964, 19:42:10.542, 1565912530542
48, 0.00, 0.00, -8497.22, -27482.41, 5415.78, 0.00, 0.00, 0.00, 0.000, 0.000, 0.000, 19:42:10.548, 1565912530548
49, 0.00, 0.00, -8602.38, -27492.80, 5406.82, 0.00, 0.00, 0.00, 0.000, 0.000, 0.000, 19:42:10.556, 1565912530556
50, 0.00, 0.00, -8760.16, -27504.51, 5393.54, 0.00, 0.00, 0.00, 0.000, 0.000, 0.000, 19:42:10.557, 1565912530557
51, 0.00, 0.00, -8627.77, -27492.53, 5400.45, 0.00, 0.00, 0.00, 0.000, 0.000, 0.000, 19:42:10.572, 1565912530572
52, 0.00, 0.00, -8505.22, -27487.59, 5408.94, 0.00, 0.00, 0.00, 0.000, 0.000, 0.000, 19:42:10.572, 1565912530572
53, 0.00, 0.00, -8579.69, -27497.65, 5401.32, 0.00, 0.00, 0.00, 0.000, 0.000, 0.000, 19:42:10.582, 1565912530582
54, 0.00, 0.00, -8754.98, -27510.91, 5386.08, 0.00, 0.00, 0.00, 0.000, 0.000, 0.000, 19:42:10.589, 1565912530589
55, 0.00, 0.00, -8665.79, -27499.55, 5395.44, 0.00, 0.00, 0.00, 0.000, 0.000, 0.000, 19:42:10.589, 1565912530589
56, 0.00, 0.00, -8503.01, -27483.41, 5413.73, 0.00, 0.00, 0.00, 0.000, 0.000, 0.000, 19:42:10.595, 1565912530595
57, 0.00, 0.00, -8548.65, -27483.48, 5417.26, 0.00, 0.00, 0.00, 0.006, 0.016, 0.962, 19:42:10.595, 1565912530595
58, 0.00, 0.00, -8728.40, -27500.89, 5397.07, 0.00, 0.00, 0.00, 0.000, 0.000, 0.000, 19:42:10.601, 1565912530601
59, 0.00, 0.00, -8696.35, -27495.80, 5397.72, 0.00, 0.00, 0.00, 0.000, 0.000, 0.000, 19:42:10.601, 1565912530601
60, 0.00, 0.00, -8524.42, -27484.62, 5408.54, 0.00, 0.00, 0.00, 0.000, 0.000, 0.000, 19:42:10.608, 1565912530608
61, 0.00, 0.00, -8536.26, -27492.87, 5401.05, 0.00, 0.00, 0.00, 0.000, 0.000, 0.000, 19:42:10.608, 1565912530608
62, 0.00, 0.00, -8699.72, -27507.71, 5385.23, 0.00, 0.00, 0.00, 0.000, 0.000, 0.000, 19:42:10.614, 1565912530614
63, 0.00, 0.00, -8729.27, -27507.91, 5379.93, 0.00, 0.00, 0.00, 0.000, 0.000, 0.000, 19:42:10.614, 1565912530614
64, 0.00, 0.00, -8548.94, -27491.06, 5395.35, 0.00, 0.00, 0.00, 0.000, 0.000, 0.000, 19:42:10.620, 1565912530620
65, 0.00, 0.00, -8524.69, -27486.70, 5402.84, 0.00, 0.00, 0.00, 0.000, 0.000, 0.000, 19:42:10.620, 1565912530620
66, 0.00, 0.00, -8666.44, -27496.56, 5392.67, 0.00, 0.00, 0.00, 0.000, 0.000, 0.000, 19:42:10.626, 1565912530626
67, 0.00, 0.00, -8745.81, -27502.97, 5382.59, 0.00, 0.00, 0.00, 0.006, 0.014, 0.966, 19:42:10.626, 1565912530626
68, 0.00, 0.00, -8572.01, -27487.57, 5398.19, 0.00, 0.00, 0.00, 0.000, 0.000, 0.000, 19:42:10.632, 1565912530632
69, 0.00, 0.00, -8516.42, -27485.92, 5403.51, 0.00, 0.00, 0.00, 0.000, 0.000, 0.000, 19:42:10.639, 1565912530639
70, 0.00, 0.00, -8634.61, -27495.19, 5395.29, 0.00, 0.00, 0.00, 0.000, 0.000, 0.000, 19:42:10.639, 1565912530639
71, 0.00, 0.00, -8755.25, -27505.65, 5383.04, 0.00, 0.00, 0.00, 0.000, 0.000, 0.000, 19:42:10.645, 1565912530645
72, 0.00, 0.00, -8603.92, -27494.01, 5394.77, 0.00, 0.00, 0.00, 0.000, 0.000, 0.000, 19:42:10.645, 1565912530645
73, 0.00, 0.00, -8507.43, -27484.22, 5409.79, 0.00, 0.00, 0.00, 0.000, 0.000, 0.000, 19:42:10.651, 1565912530651
74, 0.00, 0.00, -8601.44, -27496.06, 5399.58, 0.00, 0.00, 0.00, 0.000, 0.000, 0.000, 19:42:10.651, 1565912530651
75, 0.00, 0.00, -8757.23, -27511.67, 5378.90, 0.00, 0.00, 0.00, 0.000, 0.000, 0.000, 19:42:10.660, 1565912530660
76, 0.00, 0.00, -8636.92, -27496.22, 5389.68, 0.00, 0.00, 0.00, 0.012, 0.018, 0.972, 19:42:10.660, 1565912530660
77, 0.00, 0.00, -8506.67, -27482.18, 5408.65, 0.00, 0.00, 0.00, 0.000, 0.000, 0.000, 19:42:10.669, 1565912530669
78, 0.00, 0.00, -8568.16, -27484.96, 5410.57, 0.00, 0.00, 0.00, 0.000, 0.000, 0.000, 19:42:10.669, 1565912530669
79, 0.00, 0.00, -8740.90, -27503.20, 5392.81, 0.00, 0.00, 0.00, 0.000, 0.000, 0.000, 19:42:10.676, 1565912530676
80, 0.00, 0.00, -8670.73, -27495.46, 5401.23, 0.00, 0.00, 0.00, 0.000, 0.000, 0.000, 19:42:10.676, 1565912530676
81, 0.00, 0.00, -8510.72, -27482.86, 5414.84, 0.00, 0.00, 0.00, 0.000, 0.000, 0.000, 19:42:10.682, 1565912530682
82, 0.00, 0.00, -8546.59, -27487.95, 5414.29, 0.00, 0.00, 0.00, 0.000, 0.000, 0.000, 19:42:10.682, 1565912530682
83, 0.00, 0.00, -8724.56, -27504.02, 5395.78, 0.00, 0.00, 0.00, 0.000, 0.000, 0.000, 19:42:10.688, 1565912530688
84, 0.00, 0.00, -8706.54, -27499.66, 5394.17, 0.00, 0.00, 0.00, 0.000, 0.000, 0.000, 19:42:10.696, 1565912530696
85, 0.00, 0.00, -8526.30, -27484.58, 5412.61, 0.00, 0.00, 0.00, 0.000, 0.000, 0.000, 19:42:10.697, 1565912530697
86, 0.00, 0.00, -8531.71, -27487.55, 5413.46, 0.00, 0.00, 0.00, 0.012, 0.014, 0.974, 19:42:10.703, 1565912530703
87, 0.00, 0.00, -8697.60, -27501.56, 5397.01, 0.00, 0.00, 0.00, 0.000, 0.000, 0.000, 19:42:10.704, 1565912530704
88, 0.00, 0.00, -8730.79, -27499.08, 5394.10, 0.00, 0.00, 0.00, 0.000, 0.000, 0.000, 19:42:10.711, 1565912530711
89, 0.00, 0.00, -8545.67, -27480.66, 5411.49, 0.00, 0.00, 0.00, 0.000, 0.000, 0.000, 19:42:10.711, 1565912530711
90, 0.00, 0.00, -8519.93, -27483.03, 5412.45, 0.00, 0.00, 0.00, 0.000, 0.000, 0.000, 19:42:10.719, 1565912530719
91, 0.00, 0.00, -8665.50, -27497.47, 5399.58, 0.00, 0.00, 0.00, 0.000, 0.000, 0.000, 19:42:10.719, 1565912530719
92, 0.00, 0.00, -8750.66, -27502.46, 5390.19, 0.00, 0.00, 0.00, 0.000, 0.000, 0.000, 19:42:10.728, 1565912530728
93, 0.00, 0.00, -8567.07, -27480.87, 5409.70, 0.00, 0.00, 0.00, 0.000, 0.000, 0.000, 19:42:10.728, 1565912530728
94, 0.00, 0.00, -8513.24, -27484.96, 5411.45, 0.00, 0.00, 0.00, 0.000, 0.000, 0.000, 19:42:10.736, 1565912530736
95, 0.00, 0.00, -8630.19, -27493.20, 5408.05, 0.00, 0.00, 0.00, 0.000, 0.000, 0.000, 19:42:10.736, 1565912530736
96, 0.00, 0.00, -8756.94, -27501.07, 5397.81, 0.00, 0.00, 0.00, 0.010, 0.012, 0.976, 19:42:10.743, 1565912530743
97, 0.00, 0.00, -8602.07, -27481.33, 5415.83, 0.00, 0.00, 0.00, 0.000, 0.000, 0.000, 19:42:10.743, 1565912530743
98, 0.00, 0.00, -8500.35, -27469.71, 5431.32, 0.00, 0.00, 0.00, 0.000, 0.000, 0.000, 19:42:10.749, 1565912530749
99, 0.00, 0.00, -8591.25, -27486.32, 5414.13, 0.00, 0.00, 0.00, 0.000, 0.000, 0.000, 19:42:10.757, 1565912530757
100, 0.00, 0.00, -8748.83, -27502.21, 5393.59, 0.00, 0.00, 0.00, 0.000, 0.000, 0.000, 19:42:10.758, 1565912530758
101, 0.00, 0.00, -8634.12, -27491.55, 5400.58, 0.00, 0.00, 0.00, 0.000, 0.000, 0.000, 19:42:10.763, 1565912530763
102, 0.00, 0.00, -8505.20, -27481.22, 5414.46, 0.00, 0.00, 0.00, 0.000, 0.000, 0.000, 19:42:10.764, 1565912530764
103, 0.00, 0.00, -8563.51, -27487.15, 5412.65, 0.00, 0.00, 0.00, 0.000, 0.000, 0.000, 19:42:10.771, 1565912530771
104, 0.00, 0.00, -8733.74, -27499.69, 5399.65, 0.00, 0.00, 0.00, 0.000, 0.000, 0.000, 19:42:10.771, 1565912530771
105, 0.00, 0.00, -8667.63, -27494.48, 5400.25, 0.00, 0.00, 0.00, 0.000, 0.000, 0.000, 19:42:10.779, 1565912530779
106, 0.00, 0.00, -8512.06, -27484.58, 5409.99, 0.00, 0.00, 0.00, 0.008, 0.012, 0.972, 19:42:10.779, 1565912530779
107, 0.00, 0.00, -8538.97, -27481.47, 5414.78, 0.00, 0.00, 0.00, 0.000, 0.000, 0.000, 19:42:10.786, 1565912530786
108, 0.00, 0.00, -8715.12, -27500.51, 5396.85, 0.00, 0.00, 0.00, 0.000, 0.000, 0.000, 19:42:10.786, 1565912530786
109, 0.00, 0.00, -8699.95, -27496.91, 5397.79, 0.00, 0.00, 0.00, 0.000, 0.000, 0.000, 19:42:10.794, 1565912530794
110, 0.00, 0.00, -8522.63, -27486.14, 5410.22, 0.00, 0.00, 0.00, 0.000, 0.000, 0.000, 19:42:10.794, 1565912530794
111, 0.00, 0.00, -8531.26, -27491.46, 5410.33, 0.00, 0.00, 0.00, 0.000, 0.000, 0.000, 19:42:10.802, 1565912530802
112, 0.00, 0.00, -8689.42, -27501.94, 5396.05, 0.00, 0.00, 0.00, 0.000, 0.000, 0.000, 19:42:10.802, 1565912530802
113, 0.00, 0.00, -8728.74, -27504.98, 5386.57, 0.00, 0.00, 0.00, 0.000, 0.000, 0.000, 19:42:10.809, 1565912530809
114, 0.00, 0.00, -8545.09, -27495.15, 5397.86, 0.00, 0.00, 0.00, 0.000, 0.000, 0.000, 19:42:10.810, 1565912530810
115, 0.00, 0.00, -8510.54, -27494.28, 5403.62, 0.00, 0.00, 0.00, 0.000, 0.000, 0.000, 19:42:10.817, 1565912530817
116, 0.00, 0.00, -8658.78, -27506.50, 5392.94, 0.00, 0.00, 0.00, 0.008, 0.012, 0.966, 19:42:10.826, 1565912530826
117, 0.00, 0.00, -8756.56, -27511.91, 5381.65, 0.00, 0.00, 0.00, 0.000, 0.000, 0.000, 19:42:10.826, 1565912530826
118, 0.00, 0.00, -8571.13, -27496.15, 5394.66, 0.00, 0.00, 0.00, 0.000, 0.000, 0.000, 19:42:10.833, 1565912530833
119, 0.00, 0.00, -8506.67, -27493.81, 5399.06, 0.00, 0.00, 0.00, 0.000, 0.000, 0.000, 19:42:10.833, 1565912530833
120, 0.00, 0.00, -8626.34, -27502.46, 5391.31, 0.00, 0.00, 0.00, 0.000, 0.000, 0.000, 19:42:10.841, 1565912530841
121, 0.00, 0.00, -8761.86, -27505.68, 5385.16, 0.00, 0.00, 0.00, 0.000, 0.000, 0.000, 19:42:10.841, 1565912530841
122, 0.00, 0.00, -8604.62, -27495.42, 5390.66, 0.00, 0.00, 0.00, 0.000, 0.000, 0.000, 19:42:10.847, 1565912530847
123, 0.00, 0.00, -8498.18, -27486.39, 5403.49, 0.00, 0.00, 0.00, 0.000, 0.000, 0.000, 19:42:10.847, 1565912530847
124, 0.00, 0.00, -8591.92, -27497.09, 5395.69, 0.00, 0.00, 0.00, 0.000, 0.000, 0.000, 19:42:10.854, 1565912530854
125, 0.00, 0.00, -8763.20, -27511.11, 5381.61, 0.00, 0.00, 0.00, 0.000, 0.000, 0.000, 19:42:10.854, 1565912530854
126, 0.00, 0.00, -8643.13, -27498.93, 5393.10, 0.00, 0.00, 0.00, 0.008, 0.014, 0.972, 19:42:10.862, 1565912530862
127, 0.00, 0.00, -8497.44, -27484.49, 5410.75, 0.00, 0.00, 0.00, 0.000, 0.000, 0.000, 19:42:10.862, 1565912530862
128, 0.00, 0.00, -8558.39, -27490.01, 5406.75, 0.00, 0.00, 0.00, 0.000, 0.000, 0.000, 19:42:10.869, 1565912530869
129, 0.00, 0.00, -8742.62, -27504.92, 5389.16, 0.00, 0.00, 0.00, 0.000, 0.000, 0.000, 19:42:10.869, 1565912530869
130, 0.00, 0.00, -8671.90, -27496.04, 5394.86, 0.00, 0.00, 0.00, 0.000, 0.000, 0.000, 19:42:10.876, 1565912530876
131, 0.00, 0.00, -8501.46, -27478.81, 5417.24, 0.00, 0.00, 0.00, 0.000, 0.000, 0.000, 19:42:10.884, 1565912530884
132, 0.00, 0.00, -8530.34, -27481.00, 5419.92, 0.00, 0.00, 0.00, 0.000, 0.000, 0.000, 19:42:10.884, 1565912530884
133, 0.00, 0.00, -8711.97, -27493.14, 5405.97, 0.00, 0.00, 0.00, 0.000, 0.000, 0.000, 19:42:10.892, 1565912530892
134, 0.00, 0.00, -8707.41, -27494.97, 5401.39, 0.00, 0.00, 0.00, 0.000, 0.000, 0.000, 19:42:10.892, 1565912530892
135, 0.00, 0.00, -8522.03, -27478.05, 5421.68, 0.00, 0.00, 0.00, 0.010, 0.014, 0.970, 19:42:10.900, 1565912530900
136, 0.00, 0.00, -8515.75, -27474.61, 5428.32, 0.00, 0.00, 0.00, 0.000, 0.000, 0.000, 19:42:10.900, 1565912530900
137, 0.00, 0.00, -8679.90, -27483.03, 5419.78, 0.00, 0.00, 0.00, 0.000, 0.000, 0.000, 19:42:10.909, 1565912530909
138, 0.00, 0.00, -8727.66, -27484.44, 5414.33, 0.00, 0.00, 0.00, 0.000, 0.000, 0.000, 19:42:10.910, 1565912530910
139, 0.00, 0.00, -8538.50, -27474.74, 5426.15, 0.00, 0.00, 0.00, 0.000, 0.000, 0.000, 19:42:10.916, 1565912530916
140, 0.00, 0.00, -8495.05, -27469.20, 5434.00, 0.00, 0.00, 0.00, 0.000, 0.000, 0.000, 19:42:10.916, 1565912530916
141, 0.00, 0.00, -8643.49, -27487.75, 5416.27, 0.00, 0.00, 0.00, 0.000, 0.000, 0.000, 19:42:10.922, 1565912530922
142, 0.00, 0.00, -8743.26, -27494.19, 5408.12, 0.00, 0.00, 0.00, 0.000, 0.000, 0.000, 19:42:10.922, 1565912530922
143, 0.00, 0.00, -8560.43, -27477.80, 5424.97, 0.00, 0.00, 0.00, 0.000, 0.000, 0.000, 19:42:10.929, 1565912530929
144, 0.00, 0.00, -8491.72, -27474.18, 5431.43, 0.00, 0.00, 0.00, 0.000, 0.000, 0.000, 19:42:10.929, 1565912530929
145, 0.00, 0.00, -8612.31, -27483.86, 5422.26, 0.00, 0.00, 0.00, 0.010, 0.016, 0.972, 19:42:10.936, 1565912530936
146, 0.00, 0.00, -8758.29, -27495.71, 5407.40, 0.00, 0.00, 0.00, 0.000, 0.000, 0.000, 19:42:10.944, 1565912530944
147, 0.00, 0.00, -8593.04, -27472.19, 5428.81, 0.00, 0.00, 0.00, 0.000, 0.000, 0.000, 19:42:10.944, 1565912530944
148, 0.00, 0.00, -8481.77, -27462.67, 5441.73, 0.00, 0.00, 0.00, 0.000, 0.000, 0.000, 19:42:10.951, 1565912530951
149, 0.00, 0.00, -8572.63, -27473.38, 5433.69, 0.00, 0.00, 0.00, 0.000, 0.000, 0.000, 19:42:10.951, 1565912530951
150, 0.00, 0.00, -8740.52, -27479.88, 5425.06, 0.00, 0.00, 0.00, 0.000, 0.000, 0.000, 19:42:10.960, 1565912530960
151, 0.00, 0.00, -8631.84, -27472.04, 5430.78, 0.00, 0.00, 0.00, 0.000, 0.000, 0.000, 19:42:10.960, 1565912530960
152, 0.00, 0.00, -8490.22, -27466.29, 5439.48, 0.00, 0.00, 0.00, 0.000, 0.000, 0.000, 19:42:10.967, 1565912530967
153, 0.00, 0.00, -8549.01, -27472.66, 5435.25, 0.00, 0.00, 0.00, 0.000, 0.000, 0.000, 19:42:10.967, 1565912530967
154, 0.00, 0.00, -8732.33, -27487.53, 5419.92, 0.00, 0.00, 0.00, 0.000, 0.000, 0.000, 19:42:10.975, 1565912530975
155, 0.00, 0.00, -8672.83, -27482.27, 5420.52, 0.00, 0.00, 0.00, 0.012, 0.016, 0.970, 19:42:10.975, 1565912530975
156, 0.00, 0.00, -8500.28, -27471.32, 5433.11, 0.00, 0.00, 0.00, 0.000, 0.000, 0.000, 19:42:10.983, 1565912530983
157, 0.00, 0.00, -8530.95, -27481.80, 5423.99, 0.00, 0.00, 0.00, 0.000, 0.000, 0.000, 19:42:10.983, 1565912530983
158, 0.00, 0.00, -8709.85, -27493.14, 5413.44, 0.00, 0.00, 0.00, 0.000, 0.000, 0.000, 19:42:10.991, 1565912530991
159, 0.00, 0.00, -8697.58, -27475.46, 5426.74, 0.00, 0.00, 0.00, 0.000, 0.000, 0.000, 19:42:10.991, 1565912530991
160, 0.00, 0.00, -8508.79, -27462.25, 5441.53, 0.00, 0.00, 0.00, 0.000, 0.000, 0.000, 19:42:10.999, 1565912530999
161, 0.00, 0.00, -8508.06, -27465.51, 5444.17, 0.00, 0.00, 0.00, 0.000, 0.000, 0.000, 19:42:11.005, 1565912531005
162, 0.00, 0.00, -8673.44, -27475.93, 5433.11, 0.00, 0.00, 0.00, 0.000, 0.000, 0.000, 19:42:11.006, 1565912531006
163, 0.00, 0.00, -8726.72, -27481.02, 5421.42, 0.00, 0.00, 0.00, 0.000, 0.000, 0.000, 19:42:11.014, 1565912531014
164, 0.00, 0.00, -8537.09, -27467.07, 5433.91, 0.00, 0.00, 0.00, 0.000, 0.000, 0.000, 19:42:11.015, 1565912531015
165, 0.00, 0.00, -8497.93, -27469.18, 5433.89, 0.00, 0.00, 0.00, 0.012, 0.018, 0.970, 19:42:11.021, 1565912531021
166, 0.00, 0.00, -8634.50, -27475.66, 5427.20, 0.00, 0.00, 0.00, 0.000, 0.000, 0.000, 19:42:11.022, 1565912531022
167, 0.00, 0.00, -8736.74, -27482.09, 5417.59, 0.00, 0.00, 0.00, 0.000, 0.000, 0.000, 19:42:11.027, 1565912531027
168, 0.00, 0.00, -8560.94, -27470.99, 5426.44, 0.00, 0.00, 0.00, 0.000, 0.000, 0.000, 19:42:11.027, 1565912531027
169, 0.00, 0.00, -8482.55, -27462.11, 5438.65, 0.00, 0.00, 0.00, 0.000, 0.000, 0.000, 19:42:11.034, 1565912531034
170, 0.00, 0.00, -8591.47, -27465.80, 5437.13, 0.00, 0.00, 0.00, 0.000, 0.000, 0.000, 19:42:11.034, 1565912531034
171, 0.00, 0.00, -8738.73, -27479.66, 5422.89, 0.00, 0.00, 0.00, 0.000, 0.000, 0.000, 19:42:11.041, 1565912531041
172, 0.00, 0.00, -8597.15, -27473.65, 5427.05, 0.00, 0.00, 0.00, 0.000, 0.000, 0.000, 19:42:11.041, 1565912531041
173, 0.00, 0.00, -8483.40, -27465.62, 5437.87, 0.00, 0.00, 0.00, 0.000, 0.000, 0.000, 19:42:11.049, 1565912531049
174, 0.00, 0.00, -8566.91, -27472.17, 5434.76, 0.00, 0.00, 0.00, 0.000, 0.000, 0.000, 19:42:11.049, 1565912531049
175, 0.00, 0.00, -8740.74, -27485.13, 5421.21, 0.00, 0.00, 0.00, 0.008, 0.020, 0.970, 19:42:11.056, 1565912531056
176, 0.00, 0.00, -8636.78, -27474.79, 5427.23, 0.00, 0.00, 0.00, 0.000, 0.000, 0.000, 19:42:11.056, 1565912531056
177, 0.00, 0.00, -8486.67, -27465.69, 5439.07, 0.00, 0.00, 0.00, 0.000, 0.000, 0.000, 19:42:11.064, 1565912531064
178, 0.00, 0.00, -8543.10, -27470.76, 5435.97, 0.00, 0.00, 0.00, 0.000, 0.000, 0.000, 19:42:11.073, 1565912531073
179, 0.00, 0.00, -8724.29, -27487.71, 5415.38, 0.00, 0.00, 0.00, 0.000, 0.000, 0.000, 19:42:11.073, 1565912531073
180, 0.00, 0.00, -8668.12, -27479.70, 5421.21, 0.00, 0.00, 0.00, 0.000, 0.000, 0.000, 19:42:11.080, 1565912531080
181, 0.00, 0.00, -8495.09, -27470.00, 5433.66, 0.00, 0.00, 0.00, 0.000, 0.000, 0.000, 19:42:11.080, 1565912531080
182, 0.00, 0.00, -8519.10, -27477.29, 5427.90, 0.00, 0.00, 0.00, 0.000, 0.000, 0.000, 19:42:11.088, 1565912531088
183, 0.00, 0.00, -8701.89, -27491.62, 5412.94, 0.00, 0.00, 0.00, 0.000, 0.000, 0.000, 19:42:11.088, 1565912531088
184, 0.00, 0.00, -8710.38, -27492.73, 5410.93, 0.00, 0.00, 0.00, 0.000, 0.000, 0.000, 19:42:11.098, 1565912531098
185, 0.00, 0.00, -8522.70, -27479.61, 5427.14, 0.00, 0.00, 0.00, 0.010, 0.022, 0.972, 19:42:11.098, 1565912531098
187, 0.00, 0.00, -8666.55, -27495.66, 5413.10, 0.00, 0.00, 0.00, 0.000, 0.000, 0.000, 19:42:11.105, 1565912531105
188, 0.00, 0.00, -8737.99, -27505.41, 5398.24, 0.00, 0.00, 0.00, 0.000, 0.000, 0.000, 19:42:11.106, 1565912531106
189, 0.00, 0.00, -8552.56, -27497.76, 5403.56, 0.00, 0.00, 0.00, 0.000, 0.000, 0.000, 19:42:11.113, 1565912531113
190, 0.00, 0.00, -8506.78, -27497.43, 5405.75, 0.00, 0.00, 0.00, 0.000, 0.000, 0.000, 19:42:11.114, 1565912531114
191, 0.00, 0.00, -8648.27, -27509.77, 5394.21, 0.00, 0.00, 0.00, 0.000, 0.000, 0.000, 19:42:11.121, 1565912531121
192, 0.00, 0.00, -8761.86, -27516.72, 5382.64, 0.00, 0.00, 0.00, 0.000, 0.000, 0.000, 19:42:11.122, 1565912531122
193, 0.00, 0.00, -8594.09, -27508.74, 5387.96, 0.00, 0.00, 0.00, 0.000, 0.000, 0.000, 19:42:11.128, 1565912531128
194, 0.00, 0.00, -8511.90, -27503.17, 5398.17, 0.00, 0.00, 0.00, 0.010, 0.020, 0.966, 19:42:11.135, 1565912531135
195, 0.00, 0.00, -8617.29, -27505.74, 5397.68, 0.00, 0.00, 0.00, 0.000, 0.000, 0.000, 19:42:11.136, 1565912531136
196, 0.00, 0.00, -8764.95, -27510.37, 5390.17, 0.00, 0.00, 0.00, 0.000, 0.000, 0.000, 19:42:11.143, 1565912531143
197, 0.00, 0.00, -8616.58, -27494.19, 5403.33, 0.00, 0.00, 0.00, 0.000, 0.000, 0.000, 19:42:11.144, 1565912531144
198, 0.00, 0.00, -8494.11, -27488.06, 5412.27, 0.00, 0.00, 0.00, 0.000, 0.000, 0.000, 19:42:11.151, 1565912531151
199, 0.00, 0.00, -8576.23, -27495.35, 5407.18, 0.00, 0.00, 0.00, 0.000, 0.000, 0.000, 19:42:11.151, 1565912531151
200, 0.00, 0.00, -8763.25, -27516.79, 5386.95, 0.00, 0.00, 0.00, 0.000, 0.000, 0.000, 19:42:11.159, 1565912531159
201, 0.00, 0.00, -8669.88, -27512.07, 5387.87, 0.00, 0.00, 0.00, 0.000, 0.000, 0.000, 19:42:11.159, 1565912531159
202, 0.00, 0.00, -8512.68, -27493.14, 5409.10, 0.00, 0.00, 0.00, 0.000, 0.000, 0.000, 19:42:11.167, 1565912531167
203, 0.00, 0.00, -8561.99, -27493.88, 5411.20, 0.00, 0.00, 0.00, 0.000, 0.000, 0.000, 19:42:11.167, 1565912531167
204, 0.00, 0.00, -8740.34, -27505.90, 5395.69, 0.00, 0.00, 0.00, 0.010, 0.022, 0.960, 19:42:11.176, 1565912531176
205, 0.00, 0.00, -8689.84, -27498.21, 5400.00, 0.00, 0.00, 0.00, 0.000, 0.000, 0.000, 19:42:11.177, 1565912531177
206, 0.00, 0.00, -8505.53, -27481.51, 5420.99, 0.00, 0.00, 0.00, 0.000, 0.000, 0.000, 19:42:11.183, 1565912531183
207, 0.00, 0.00, -8524.53, -27483.12, 5422.96, 0.00, 0.00, 0.00, 0.000, 0.000, 0.000, 19:42:11.183, 1565912531183
208, 0.00, 0.00, -8705.13, -27497.09, 5408.18, 0.00, 0.00, 0.00, 0.000, 0.000, 0.000, 19:42:11.189, 1565912531189
209, 0.00, 0.00, -8711.97, -27494.99, 5407.74, 0.00, 0.00, 0.00, 0.000, 0.000, 0.000, 19:42:11.195, 1565912531195
210, 0.00, 0.00, -8521.38, -27480.78, 5424.75, 0.00, 0.00, 0.00, 0.000, 0.000, 0.000, 19:42:11.195, 1565912531195
211, 0.00, 0.00, -8505.11, -27479.50, 5429.15, 0.00, 0.00, 0.00, 0.000, 0.000, 0.000, 19:42:11.204, 1565912531204
212, 0.00, 0.00, -8670.67, -27494.92, 5414.46, 0.00, 0.00, 0.00, 0.000, 0.000, 0.000, 19:42:11.204, 1565912531204
213, 0.00, 0.00, -8742.04, -27501.99, 5405.97, 0.00, 0.00, 0.00, 0.000, 0.000, 0.000, 19:42:11.211, 1565912531211
214, 0.00, 0.00, -8549.65, -27484.44, 5422.51, 0.00, 0.00, 0.00, 0.008, 0.024, 0.962, 19:42:11.211, 1565912531211
215, 0.00, 0.00, -8493.86, -27475.43, 5433.28, 0.00, 0.00, 0.00, 0.000, 0.000, 0.000, 19:42:11.219, 1565912531219
216, 0.00, 0.00, -8629.87, -27486.86, 5425.24, 0.00, 0.00, 0.00, 0.000, 0.000, 0.000, 19:42:11.219, 1565912531219
217, 0.00, 0.00, -8748.74, -27493.88, 5414.78, 0.00, 0.00, 0.00, 0.000, 0.000, 0.000, 19:42:11.227, 1565912531227
218, 0.00, 0.00, -8580.63, -27482.72, 5422.87, 0.00, 0.00, 0.00, 0.000, 0.000, 0.000, 19:42:11.227, 1565912531227
219, 0.00, 0.00, -8493.42, -27479.05, 5430.78, 0.00, 0.00, 0.00, 0.000, 0.000, 0.000, 19:42:11.236, 1565912531236
220, 0.00, 0.00, -8598.20, -27489.83, 5421.80, 0.00, 0.00, 0.00, 0.000, 0.000, 0.000, 19:42:11.237, 1565912531237
221, 0.00, 0.00, -8748.94, -27496.24, 5412.61, 0.00, 0.00, 0.00, 0.000, 0.000, 0.000, 19:42:11.243, 1565912531243
222, 0.00, 0.00, -8616.17, -27490.90, 5413.35, 0.00, 0.00, 0.00, 0.000, 0.000, 0.000, 19:42:11.243, 1565912531243
223, 0.00, 0.00, -8492.88, -27482.18, 5426.94, 0.00, 0.00, 0.00, 0.000, 0.000, 0.000, 19:42:11.250, 1565912531250
224, 0.00, 0.00, -8570.26, -27486.45, 5427.63, 0.00, 0.00, 0.00, 0.006, 0.022, 0.960, 19:42:11.256, 1565912531256
225, 0.00, 0.00, -8750.95, -27501.81, 5409.95, 0.00, 0.00, 0.00, 0.000, 0.000, 0.000, 19:42:11.256, 1565912531256
226, 0.00, 0.00, -8656.52, -27492.33, 5415.25, 0.00, 0.00, 0.00, 0.000, 0.000, 0.000, 19:42:11.263, 1565912531263
227, 0.00, 0.00, -8495.27, -27480.62, 5427.96, 0.00, 0.00, 0.00, 0.000, 0.000, 0.000, 19:42:11.263, 1565912531263
228, 0.00, 0.00, -8542.90, -27481.92, 5429.10, 0.00, 0.00, 0.00, 0.000, 0.000, 0.000, 19:42:11.271, 1565912531271
229, 0.00, 0.00, -8725.27, -27492.58, 5418.62, 0.00, 0.00, 0.00, 0.000, 0.000, 0.000, 19:42:11.271, 1565912531271
230, 0.00, 0.00, -8682.89, -27485.74, 5421.80, 0.00, 0.00, 0.00, 0.000, 0.000, 0.000, 19:42:11.278, 1565912531278
231, 0.00, 0.00, -8504.50, -27475.88, 5432.28, 0.00, 0.00, 0.00, 0.000, 0.000, 0.000, 19:42:11.278, 1565912531278
232, 0.00, 0.00, -8519.99, -27479.14, 5431.43, 0.00, 0.00, 0.00, 0.000, 0.000, 0.000, 19:42:11.286, 1565912531286
233, 0.00, 0.00, -8699.81, -27495.33, 5415.47, 0.00, 0.00, 0.00, 0.000, 0.000, 0.000, 19:42:11.286, 1565912531286
234, 0.00, 0.00, -8719.91, -27493.70, 5413.41, 0.00, 0.00, 0.00, 0.008, 0.018, 0.962, 19:42:11.294, 1565912531294
235, 0.00, 0.00, -8530.97, -27480.73, 5424.70, 0.00, 0.00, 0.00, 0.000, 0.000, 0.000, 19:42:11.294, 1565912531294
236, 0.00, 0.00, -8515.17, -27477.94, 5430.09, 0.00, 0.00, 0.00, 0.000, 0.000, 0.000, 19:42:11.302, 1565912531302
237, 0.00, 0.00, -8659.85, -27488.98, 5418.60, 0.00, 0.00, 0.00, 0.000, 0.000, 0.000, 19:42:11.302, 1565912531302
238, 0.00, 0.00, -8733.70, -27494.30, 5411.45, 0.00, 0.00, 0.00, 0.000, 0.000, 0.000, 19:42:11.309, 1565912531309
239, 0.00, 0.00, -8556.45, -27476.35, 5430.65, 0.00, 0.00, 0.00, 0.000, 0.000, 0.000, 19:42:11.309, 1565912531309
240, 0.00, 0.00, -8496.21, -27467.92, 5443.45, 0.00, 0.00, 0.00, 0.000, 0.000, 0.000, 19:42:11.317, 1565912531317
241, 0.00, 0.00, -8621.31, -27480.89, 5432.75, 0.00, 0.00, 0.00, 0.000, 0.000, 0.000, 19:42:11.325, 1565912531325
242, 0.00, 0.00, -8747.31, -27498.95, 5413.77, 0.00, 0.00, 0.00, 0.000, 0.000, 0.000, 19:42:11.325, 1565912531325
243, 0.00, 0.00, -8589.57, -27481.00, 5431.12, 0.00, 0.00, 0.00, 0.000, 0.000, 0.000, 19:42:11.332, 1565912531332
244, 0.00, 0.00, -8494.33, -27469.78, 5446.18, 0.00, 0.00, 0.00, 0.006, 0.016, 0.960, 19:42:11.332, 1565912531332
245, 0.00, 0.00, -8591.36, -27483.64, 5434.07, 0.00, 0.00, 0.00, 0.000, 0.000, 0.000, 19:42:11.338, 1565912531338
246, 0.00, 0.00, -8740.87, -27496.98, 5416.86, 0.00, 0.00, 0.00, 0.000, 0.000, 0.000, 19:42:11.338, 1565912531338
247, 0.00, 0.00, -8618.18, -27485.76, 5424.34, 0.00, 0.00, 0.00, 0.000, 0.000, 0.000, 19:42:11.346, 1565912531346
248, 0.00, 0.00, -8493.93, -27478.59, 5434.51, 0.00, 0.00, 0.00, 0.000, 0.000, 0.000, 19:42:11.346, 1565912531346
249, 0.00, 0.00, -8555.17, -27483.23, 5430.45, 0.00, 0.00, 0.00, 0.000, 0.000, 0.000, 19:42:11.354, 1565912531354
250, 0.00, 0.00, -8722.90, -27494.01, 5417.93, 0.00, 0.00, 0.00, 0.000, 0.000, 0.000, 19:42:11.354, 1565912531354
251, 0.00, 0.00, -8649.03, -27485.54, 5423.76, 0.00, 0.00, 0.00, 0.000, 0.000, 0.000, 19:42:11.361, 1565912531361
252, 0.00, 0.00, -8498.83, -27477.18, 5436.59, 0.00, 0.00, 0.00, 0.000, 0.000, 0.000, 19:42:11.361, 1565912531361
253, 0.00, 0.00, -8537.96, -27485.69, 5433.17, 0.00, 0.00, 0.00, 0.000, 0.000, 0.000, 19:42:11.369, 1565912531369
254, 0.00, 0.00, -8715.15, -27504.25, 5413.10, 0.00, 0.00, 0.00, 0.008, 0.024, 0.960, 19:42:11.369, 1565912531369
255, 0.00, 0.00, -8691.03, -27501.70, 5409.59, 0.00, 0.00, 0.00, 0.000, 0.000, 0.000, 19:42:11.376, 1565912531376
0, 0.00, 0.00, -8521.45, -27488.89, 5423.65, 0.00, 0.00, 0.00, 0.000, 0.000, 0.000, 19:42:11.384, 1565912531384
1, 0.00, 0.00, -8528.73, -27491.97, 5420.66, 0.00, 0.00, 0.00, 0.000, 0.000, 0.000, 19:42:11.384, 1565912531384
2, 0.00, 0.00, -8686.71, -27500.74, 5410.51, 0.00, 0.00, 0.00, 0.000, 0.000, 0.000, 19:42:11.393, 1565912531393
3, 0.00, 0.00, -8722.28, -27503.46, 5405.61, 0.00, 0.00, 0.00, 0.000, 0.000, 0.000, 19:42:11.393, 1565912531393
4, 0.00, 0.00, -8546.32, -27491.62, 5418.26, 0.00, 0.00, 0.00, 0.000, 0.000, 0.000, 19:42:11.400, 1565912531400
5, 0.00, 0.00, -8519.88, -27492.02, 5420.70, 0.00, 0.00, 0.00, 0.000, 0.000, 0.000, 19:42:11.400, 1565912531400
6, 0.00, 0.00, -8663.22, -27504.63, 5406.19, 0.00, 0.00, 0.00, 0.000, 0.000, 0.000, 19:42:11.407, 1565912531407
7, 0.00, 0.00, -8745.37, -27510.37, 5393.88, 0.00, 0.00, 0.00, 0.006, 0.020, 0.970, 19:42:11.407, 1565912531407
8, 0.00, 0.00, -8573.62, -27492.40, 5408.41, 0.00, 0.00, 0.00, 0.000, 0.000, 0.000, 19:42:11.415, 1565912531415
9, 0.00, 0.00, -8509.08, -27484.78, 5417.21, 0.00, 0.00, 0.00, 0.000, 0.000, 0.000, 19:42:11.415, 1565912531415
10, 0.00, 0.00, -8632.60, -27501.09, 5402.55, 0.00, 0.00, 0.00, 0.000, 0.000, 0.000, 19:42:11.421, 1565912531421
11, 0.00, 0.00, -8752.81, -27511.67, 5388.47, 0.00, 0.00, 0.00, 0.000, 0.000, 0.000, 19:42:11.421, 1565912531421
12, 0.00, 0.00, -8604.17, -27496.38, 5401.05, 0.00, 0.00, 0.00, 0.000, 0.000, 0.000, 19:42:11.429, 1565912531429
13, 0.00, 0.00, -8502.63, -27482.90, 5415.51, 0.00, 0.00, 0.00, 0.000, 0.000, 0.000, 19:42:11.429, 1565912531429
14, 0.00, 0.00, -8594.11, -27494.79, 5406.17, 0.00, 0.00, 0.00, 0.000, 0.000, 0.000, 19:42:11.436, 1565912531436
15, 0.00, 0.00, -8751.98, -27511.31, 5387.69, 0.00, 0.00, 0.00, 0.000, 0.000, 0.000, 19:42:11.442, 1565912531442
16, 0.00, 0.00, -8631.64, -27497.65, 5398.71, 0.00, 0.00, 0.00, 0.000, 0.000, 0.000, 19:42:11.442, 1565912531442
17, 0.00, 0.00, -8502.45, -27482.12, 5419.74, 0.00, 0.00, 0.00, 0.010, 0.024, 0.970, 19:42:11.451, 1565912531451
18, 0.00, 0.00, -8558.75, -27486.63, 5416.50, 0.00, 0.00, 0.00, 0.000, 0.000, 0.000, 19:42:11.451, 1565912531451
19, 0.00, 0.00, -8731.40, -27505.36, 5395.17, 0.00, 0.00, 0.00, 0.000, 0.000, 0.000, 19:42:11.458, 1565912531458
20, 0.00, 0.00, -8662.33, -27499.33, 5400.45, 0.00, 0.00, 0.00, 0.000, 0.000, 0.000, 19:42:11.459, 1565912531459
21, 0.00, 0.00, -8507.01, -27484.71, 5419.43, 0.00, 0.00, 0.00, 0.000, 0.000, 0.000, 19:42:11.466, 1565912531466
22, 0.00, 0.00, -8539.26, -27489.00, 5418.49, 0.00, 0.00, 0.00, 0.000, 0.000, 0.000, 19:42:11.467, 1565912531467
23, 0.00, 0.00, -8709.27, -27501.18, 5406.33, 0.00, 0.00, 0.00, 0.000, 0.000, 0.000, 19:42:11.475, 1565912531475
24, 0.00, 0.00, -8693.46, -27498.59, 5406.86, 0.00, 0.00, 0.00, 0.000, 0.000, 0.000, 19:42:11.475, 1565912531475
25, 0.00, 0.00, -8519.84, -27485.29, 5423.43, 0.00, 0.00, 0.00, 0.000, 0.000, 0.000, 19:42:11.484, 1565912531484
26, 0.00, 0.00, -8514.49, -27480.40, 5430.78, 0.00, 0.00, 0.00, 0.000, 0.000, 0.000, 19:42:11.484, 1565912531484
27, 0.00, 0.00, -8675.05, -27496.36, 5414.31, 0.00, 0.00, 0.00, 0.010, 0.020, 0.962, 19:42:11.491, 1565912531491
28, 0.00, 0.00, -8718.39, -27501.52, 5404.94, 0.00, 0.00, 0.00, 0.000, 0.000, 0.000, 19:42:11.491, 1565912531491
29, 0.00, 0.00, -8542.64, -27490.34, 5416.10, 0.00, 0.00, 0.00, 0.000, 0.000, 0.000, 19:42:11.497, 1565912531497
30, 0.00, 0.00, -8509.71, -27485.85, 5421.50, 0.00, 0.00, 0.00, 0.000, 0.000, 0.000, 19:42:11.503, 1565912531503
31, 0.00, 0.00, -8651.26, -27499.53, 5407.89, 0.00, 0.00, 0.00, 0.000, 0.000, 0.000, 19:42:11.503, 1565912531503
32, 0.00, 0.00, -8740.18, -27503.89, 5399.69, 0.00, 0.00, 0.00, 0.000, 0.000, 0.000, 19:42:11.511, 1565912531511
33, 0.00, 0.00, -8572.41, -27490.48, 5413.26, 0.00, 0.00, 0.00, 0.000, 0.000, 0.000, 19:42:11.511, 1565912531511
34, 0.00, 0.00, -8504.03, -27485.63, 5422.04, 0.00, 0.00, 0.00, 0.000, 0.000, 0.000, 19:42:11.519, 1565912531519
35, 0.00, 0.00, -8613.02, -27491.79, 5415.49, 0.00, 0.00, 0.00, 0.000, 0.000, 0.000, 19:42:11.519, 1565912531519
36, 0.00, 0.00, -8742.57, -27500.45, 5403.74, 0.00, 0.00, 0.00, 0.000, 0.000, 0.000, 19:42:11.526, 1565912531526
37, 0.00, 0.00, -8593.11, -27489.78, 5412.74, 0.00, 0.00, 0.00, 0.012, 0.016, 0.964, 19:42:11.526, 1565912531526
38, 0.00, 0.00, -8495.32, -27483.41, 5424.25, 0.00, 0.00, 0.00, 0.000, 0.000, 0.000, 19:42:11.533, 1565912531533
39, 0.00, 0.00, -8582.33, -27492.91, 5417.28, 0.00, 0.00, 0.00, 0.000, 0.000, 0.000, 19:42:11.534, 1565912531534
40, 0.00, 0.00, -8743.09, -27507.78, 5401.66, 0.00, 0.00, 0.00, 0.000, 0.000, 0.000, 19:42:11.543, 1565912531543
41, 0.00, 0.00, -8639.49, -27499.84, 5407.38, 0.00, 0.00, 0.00, 0.000, 0.000, 0.000, 19:42:11.543, 1565912531543
42, 0.00, 0.00, -8511.34, -27490.43, 5418.91, 0.00, 0.00, 0.00, 0.000, 0.000, 0.000, 19:42:11.549, 1565912531549
43, 0.00, 0.00, -8567.40, -27499.71, 5411.27, 0.00, 0.00, 0.00, 0.000, 0.000, 0.000, 19:42:11.549, 1565912531549
44, 0.00, 0.00, -8735.89, -27512.94, 5395.85, 0.00, 0.00, 0.00, 0.000, 0.000, 0.000, 19:42:11.557, 1565912531557
45, 0.00, 0.00, -8672.12, -27504.85, 5399.24, 0.00, 0.00, 0.00, 0.000, 0.000, 0.000, 19:42:11.557, 1565912531557
46, 0.00, 0.00, -8514.25, -27493.90, 5412.45, 0.00, 0.00, 0.00, 0.000, 0.000, 0.000, 19:42:11.565, 1565912531565
47, 0.00, 0.00, -8539.66, -27496.56, 5413.12, 0.00, 0.00, 0.00, 0.010, 0.010, 0.960, 19:42:11.572, 1565912531572
48, 0.00, 0.00, -8711.21, -27511.31, 5399.09, 0.00, 0.00, 0.00, 0.000, 0.000, 0.000, 19:42:11.573, 1565912531573
49, 0.00, 0.00, -8704.73, -27504.92, 5402.51, 0.00, 0.00, 0.00, 0.000, 0.000, 0.000, 19:42:11.580, 1565912531580
50, 0.00, 0.00, -8529.83, -27490.68, 5416.21, 0.00, 0.00, 0.00, 0.000, 0.000, 0.000, 19:42:11.580, 1565912531580
51, 0.00, 0.00, -8523.97, -27491.24, 5417.75, 0.00, 0.00, 0.00, 0.000, 0.000, 0.000, 19:42:11.586, 1565912531586
52, 0.00, 0.00, -8683.47, -27508.56, 5401.61, 0.00, 0.00, 0.00, 0.000, 0.000, 0.000, 19:42:11.586, 1565912531586
53, 0.00, 0.00, -8731.51, -27512.13, 5395.71, 0.00, 0.00, 0.00, 0.000, 0.000, 0.000, 19:42:11.594, 1565912531594
54, 0.00, 0.00, -8551.02, -27494.46, 5414.06, 0.00, 0.00, 0.00, 0.000, 0.000, 0.000, 19:42:11.594, 1565912531594
55, 0.00, 0.00, -8514.72, -27489.54, 5421.19, 0.00, 0.00, 0.00, 0.000, 0.000, 0.000, 19:42:11.602, 1565912531602
56, 0.00, 0.00, -8649.21, -27499.39, 5411.58, 0.00, 0.00, 0.00, 0.000, 0.000, 0.000, 19:42:11.602, 1565912531602
57, 0.00, 0.00, -8743.31, -27505.88, 5400.36, 0.00, 0.00, 0.00, 0.008, 0.008, 0.972, 19:42:11.608, 1565912531608
58, 0.00, 0.00, -8577.30, -27492.53, 5415.25, 0.00, 0.00, 0.00, 0.000, 0.000, 0.000, 19:42:11.608, 1565912531608
59, 0.00, 0.00, -8510.25, -27489.74, 5422.85, 0.00, 0.00, 0.00, 0.000, 0.000, 0.000, 19:42:11.616, 1565912531616
60, 0.00, 0.00, -8619.73, -27499.02, 5414.80, 0.00, 0.00, 0.00, 0.000, 0.000, 0.000, 19:42:11.616, 1565912531616
61, 0.00, 0.00, -8748.94, -27506.30, 5403.44, 0.00, 0.00, 0.00, 0.000, 0.000, 0.000, 19:42:11.623, 1565912531623
62, 0.00, 0.00, -8602.00, -27487.17, 5420.41, 0.00, 0.00, 0.00, 0.000, 0.000, 0.000, 19:42:11.631, 1565912531631
63, 0.00, 0.00, -8501.60, -27482.16, 5429.73, 0.00, 0.00, 0.00, 0.000, 0.000, 0.000, 19:42:11.631, 1565912531631
64, 0.00, 0.00, -8583.43, -27490.52, 5423.58, 0.00, 0.00, 0.00, 0.000, 0.000, 0.000, 19:42:11.639, 1565912531639
65, 0.00, 0.00, -8744.87, -27505.47, 5403.04, 0.00, 0.00, 0.00, 0.000, 0.000, 0.000, 19:42:11.640, 1565912531640
66, 0.00, 0.00, -8640.83, -27494.57, 5409.99, 0.00, 0.00, 0.00, 0.008, 0.014, 0.970, 19:42:11.647, 1565912531647
67, 0.00, 0.00, -8499.34, -27476.33, 5432.84, 0.00, 0.00, 0.00, 0.000, 0.000, 0.000, 19:42:11.647, 1565912531647
68, 0.00, 0.00, -8554.01, -27484.60, 5425.95, 0.00, 0.00, 0.00, 0.000, 0.000, 0.000, 19:42:11.656, 1565912531656
69, 0.00, 0.00, -8731.24, -27504.13, 5405.30, 0.00, 0.00, 0.00, 0.000, 0.000, 0.000, 19:42:11.656, 1565912531656
70, 0.00, 0.00, -8669.66, -27494.25, 5410.22, 0.00, 0.00, 0.00, 0.000, 0.000, 0.000, 19:42:11.662, 1565912531662
71, 0.00, 0.00, -8502.87, -27477.38, 5427.79, 0.00, 0.00, 0.00, 0.000, 0.000, 0.000, 19:42:11.662, 1565912531662
72, 0.00, 0.00, -8533.43, -27486.65, 5423.90, 0.00, 0.00, 0.00, 0.000, 0.000, 0.000, 19:42:11.669, 1565912531669
73, 0.00, 0.00, -8705.11, -27502.81, 5409.37, 0.00, 0.00, 0.00, 0.000, 0.000, 0.000, 19:42:11.669, 1565912531669
74, 0.00, 0.00, -8701.51, -27495.97, 5410.44, 0.00, 0.00, 0.00, 0.000, 0.000, 0.000, 19:42:11.677, 1565912531677
75, 0.00, 0.00, -8520.22, -27479.05, 5428.95, 0.00, 0.00, 0.00, 0.000, 0.000, 0.000, 19:42:11.677, 1565912531677
76, 0.00, 0.00, -8511.86, -27479.03, 5432.12, 0.00, 0.00, 0.00, 0.014, 0.016, 0.964, 19:42:11.684, 1565912531684
77, 0.00, 0.00, -8670.80, -27494.92, 5416.10, 0.00, 0.00, 0.00, 0.000, 0.000, 0.000, 19:42:11.691, 1565912531691
78, 0.00, 0.00, -8725.70, -27496.87, 5410.04, 0.00, 0.00, 0.00, 0.000, 0.000, 0.000, 19:42:11.692, 1565912531692
79, 0.00, 0.00, -8545.79, -27480.69, 5426.44, 0.00, 0.00, 0.00, 0.000, 0.000, 0.000, 19:42:11.698, 1565912531698
80, 0.00, 0.00, -8504.70, -27481.54, 5429.40, 0.00, 0.00, 0.00, 0.000, 0.000, 0.000, 19:42:11.698, 1565912531698
81, 0.00, 0.00, -8639.08, -27494.14, 5416.79, 0.00, 0.00, 0.00, 0.000, 0.000, 0.000, 19:42:11.706, 1565912531706
82, 0.00, 0.00, -8741.01, -27502.26, 5403.49, 0.00, 0.00, 0.00, 0.000, 0.000, 0.000, 19:42:11.707, 1565912531707
83, 0.00, 0.00, -8569.66, -27481.98, 5423.36, 0.00, 0.00, 0.00, 0.000, 0.000, 0.000, 19:42:11.714, 1565912531714
84, 0.00, 0.00, -8495.23, -27476.42, 5433.89, 0.00, 0.00, 0.00, 0.000, 0.000, 0.000, 19:42:11.715, 1565912531715
85, 0.00, 0.00, -8606.79, -27492.38, 5421.13, 0.00, 0.00, 0.00, 0.000, 0.000, 0.000, 19:42:11.722, 1565912531722
86, 0.00, 0.00, -8750.91, -27507.40, 5403.49, 0.00, 0.00, 0.00, 0.014, 0.020, 0.962, 19:42:11.722, 1565912531722
87, 0.00, 0.00, -8609.58, -27494.41, 5415.27, 0.00, 0.00, 0.00, 0.000, 0.000, 0.000, 19:42:11.730, 1565912531730
88, 0.00, 0.00, -8503.03, -27486.90, 5428.37, 0.00, 0.00, 0.00, 0.000, 0.000, 0.000, 19:42:11.730, 1565912531730
89, 0.00, 0.00, -8584.63, -27495.19, 5423.14, 0.00, 0.00, 0.00, 0.000, 0.000, 0.000, 19:42:11.738, 1565912531738
90, 0.00, 0.00, -8748.07, -27513.10, 5401.68, 0.00, 0.00, 0.00, 0.000, 0.000, 0.000, 19:42:11.739, 1565912531739
91, 0.00, 0.00, -8655.18, -27503.96, 5409.64, 0.00, 0.00, 0.00, 0.000, 0.000, 0.000, 19:42:11.745, 1565912531745
92, 0.00, 0.00, -8515.84, -27494.57, 5420.61, 0.00, 0.00, 0.00, 0.000, 0.000, 0.000, 19:42:11.751, 1565912531751
93, 0.00, 0.00, -8562.17, -27497.16, 5420.05, 0.00, 0.00, 0.00, 0.000, 0.000, 0.000, 19:42:11.751, 1565912531751
94, 0.00, 0.00, -8731.75, -27509.56, 5405.12, 0.00, 0.00, 0.00, 0.000, 0.000, 0.000, 19:42:11.759, 1565912531759
95, 0.00, 0.00, -8687.74, -27503.24, 5407.31, 0.00, 0.00, 0.00, 0.000, 0.000, 0.000, 19:42:11.759, 1565912531759
96, 0.00, 0.00, -8517.67, -27488.58, 5422.04, 0.00, 0.00, 0.00, 0.014, 0.016, 0.964, 19:42:11.766, 1565912531766
97, 0.00, 0.00, -8540.40, -27493.43, 5418.49, 0.00, 0.00, 0.00, 0.000, 0.000, 0.000, 19:42:11.766, 1565912531766
98, 0.00, 0.00, -8703.95, -27505.32, 5405.95, 0.00, 0.00, 0.00, 0.000, 0.000, 0.000, 19:42:11.773, 1565912531773
99, 0.00, 0.00, -8708.33, -27506.55, 5400.20, 0.00, 0.00, 0.00, 0.000, 0.000, 0.000, 19:42:11.773, 1565912531773
100, 0.00, 0.00, -8536.15, -27496.09, 5409.08, 0.00, 0.00, 0.00, 0.000, 0.000, 0.000, 19:42:11.781, 1565912531781
101, 0.00, 0.00, -8527.46, -27495.62, 5413.93, 0.00, 0.00, 0.00, 0.000, 0.000, 0.000, 19:42:11.782, 1565912531782
102, 0.00, 0.00, -8680.93, -27509.27, 5401.68, 0.00, 0.00, 0.00, 0.000, 0.000, 0.000, 19:42:11.789, 1565912531789
103, 0.00, 0.00, -8742.13, -27512.72, 5396.11, 0.00, 0.00, 0.00, 0.000, 0.000, 0.000, 19:42:11.789, 1565912531789
104, 0.00, 0.00, -8561.08, -27492.35, 5415.94, 0.00, 0.00, 0.00, 0.000, 0.000, 0.000, 19:42:11.797, 1565912531797
105, 0.00, 0.00, -8513.80, -27488.93, 5423.29, 0.00, 0.00, 0.00, 0.000, 0.000, 0.000, 19:42:11.798, 1565912531798
106, 0.00, 0.00, -8639.75, -27498.03, 5416.01, 0.00, 0.00, 0.00, 0.010, 0.018, 0.962, 19:42:11.804, 1565912531804
107, 0.00, 0.00, -8745.52, -27507.49, 5400.74, 0.00, 0.00, 0.00, 0.000, 0.000, 0.000, 19:42:11.804, 1565912531804
108, 0.00, 0.00, -8578.24, -27493.07, 5412.56, 0.00, 0.00, 0.00, 0.000, 0.000, 0.000, 19:42:11.812, 1565912531812
109, 0.00, 0.00, -8500.90, -27487.93, 5423.67, 0.00, 0.00, 0.00, 0.000, 0.000, 0.000, 19:42:11.820, 1565912531820
110, 0.00, 0.00, -8605.02, -27495.82, 5418.51, 0.00, 0.00, 0.00, 0.000, 0.000, 0.000, 19:42:11.820, 1565912531820
111, 0.00, 0.00, -8758.53, -27513.79, 5397.01, 0.00, 0.00, 0.00, 0.000, 0.000, 0.000, 19:42:11.826, 1565912531826
112, 0.00, 0.00, -8625.96, -27506.48, 5402.19, 0.00, 0.00, 0.00, 0.000, 0.000, 0.000, 19:42:11.826, 1565912531826
113, 0.00, 0.00, -8511.95, -27494.90, 5418.02, 0.00, 0.00, 0.00, 0.000, 0.000, 0.000, 19:42:11.834, 1565912531834
114, 0.00, 0.00, -8577.91, -27495.48, 5419.09, 0.00, 0.00, 0.00, 0.000, 0.000, 0.000, 19:42:11.834, 1565912531834
115, 0.00, 0.00, -8744.76, -27509.16, 5403.49, 0.00, 0.00, 0.00, 0.000, 0.000, 0.000, 19:42:11.842, 1565912531842
116, 0.00, 0.00, -8651.73, -27499.93, 5410.15, 0.00, 0.00, 0.00, 0.010, 0.020, 0.962, 19:42:11.842, 1565912531842
117, 0.00, 0.00, -8508.06, -27487.41, 5425.93, 0.00, 0.00, 0.00, 0.000, 0.000, 0.000, 19:42:11.850, 1565912531850
118, 0.00, 0.00, -8555.51, -27493.96, 5422.33, 0.00, 0.00, 0.00, 0.000, 0.000, 0.000, 19:42:11.850, 1565912531850
119, 0.00, 0.00, -8729.67, -27510.46, 5405.17, 0.00, 0.00, 0.00, 0.000, 0.000, 0.000, 19:42:11.856, 1565912531856
120, 0.00, 0.00, -8699.97, -27514.39, 5399.04, 0.00, 0.00, 0.00, 0.000, 0.000, 0.000, 19:42:11.856, 1565912531856
121, 0.00, 0.00, -8537.92, -27503.84, 5413.64, 0.00, 0.00, 0.00, 0.000, 0.000, 0.000, 19:42:11.864, 1565912531864
122, 0.00, 0.00, -8542.43, -27496.73, 5423.85, 0.00, 0.00, 0.00, 0.000, 0.000, 0.000, 19:42:11.864, 1565912531864
123, 0.00, 0.00, -8696.19, -27505.43, 5410.08, 0.00, 0.00, 0.00, 0.000, 0.000, 0.000, 19:42:11.871, 1565912531871
124, 0.00, 0.00, -8714.83, -27509.45, 5399.13, 0.00, 0.00, 0.00, 0.000, 0.000, 0.000, 19:42:11.879, 1565912531879
125, 0.00, 0.00, -8536.38, -27493.74, 5414.51, 0.00, 0.00, 0.00, 0.000, 0.000, 0.000, 19:42:11.880, 1565912531880
126, 0.00, 0.00, -8513.35, -27487.82, 5423.83, 0.00, 0.00, 0.00, 0.010, 0.018, 0.964, 19:42:11.887, 1565912531887
127, 0.00, 0.00, -8660.90, -27498.97, 5412.50, 0.00, 0.00, 0.00, 0.000, 0.000, 0.000, 19:42:11.888, 1565912531888
128, 0.00, 0.00, -8730.90, -27505.94, 5401.59, 0.00, 0.00, 0.00, 0.000, 0.000, 0.000, 19:42:11.896, 1565912531896
129, 0.00, 0.00, -8552.78, -27491.50, 5417.71, 0.00, 0.00, 0.00, 0.000, 0.000, 0.000, 19:42:11.896, 1565912531896
130, 0.00, 0.00, -8496.43, -27484.46, 5429.06, 0.00, 0.00, 0.00, 0.000, 0.000, 0.000, 19:42:11.903, 1565912531903
131, 0.00, 0.00, -8628.42, -27497.65, 5417.91, 0.00, 0.00, 0.00, 0.000, 0.000, 0.000, 19:42:11.903, 1565912531903
132, 0.00, 0.00, -8745.70, -27508.27, 5402.71, 0.00, 0.00, 0.00, 0.000, 0.000, 0.000, 19:42:11.909, 1565912531909
133, 0.00, 0.00, -8587.79, -27493.25, 5416.92, 0.00, 0.00, 0.00, 0.000, 0.000, 0.000, 19:42:11.909, 1565912531909
134, 0.00, 0.00, -8493.93, -27478.72, 5435.81, 0.00, 0.00, 0.00, 0.000, 0.000, 0.000, 19:42:11.916, 1565912531916
135, 0.00, 0.00, -8592.77, -27489.98, 5424.86, 0.00, 0.00, 0.00, 0.008, 0.020, 0.962, 19:42:11.917, 1565912531917
136, 0.00, 0.00, -8742.48, -27506.86, 5406.10, 0.00, 0.00, 0.00, 0.000, 0.000, 0.000, 19:42:11.924, 1565912531924
137, 0.00, 0.00, -8615.73, -27494.23, 5418.51, 0.00, 0.00, 0.00, 0.000, 0.000, 0.000, 19:42:11.925, 1565912531925
138, 0.00, 0.00, -8499.61, -27484.35, 5433.44, 0.00, 0.00, 0.00, 0.000, 0.000, 0.000, 19:42:11.930, 1565912531930
139, 0.00, 0.00, -8569.86, -27491.73, 5426.69, 0.00, 0.00, 0.00, 0.000, 0.000, 0.000, 19:42:11.939, 1565912531939
140, 0.00, 0.00, -8740.47, -27512.07, 5405.61, 0.00, 0.00, 0.00, 0.000, 0.000, 0.000, 19:42:11.939, 1565912531939
141, 0.00, 0.00, -8654.53, -27500.22, 5414.37, 0.00, 0.00, 0.00, 0.000, 0.000, 0.000, 19:42:11.946, 1565912531946
142, 0.00, 0.00, -8503.65, -27487.66, 5429.02, 0.00, 0.00, 0.00, 0.000, 0.000, 0.000, 19:42:11.946, 1565912531946
143, 0.00, 0.00, -8548.22, -27494.28, 5426.22, 0.00, 0.00, 0.00, 0.000, 0.000, 0.000, 19:42:11.954, 1565912531954
144, 0.00, 0.00, -8722.46, -27512.65, 5405.97, 0.00, 0.00, 0.00, 0.000, 0.000, 0.000, 19:42:11.954, 1565912531954
145, 0.00, 0.00, -8694.63, -27513.43, 5400.99, 0.00, 0.00, 0.00, 0.008, 0.016, 0.964, 19:42:11.962, 1565912531962
146, 0.00, 0.00, -8522.85, -27497.92, 5417.28, 0.00, 0.00, 0.00, 0.000, 0.000, 0.000, 19:42:11.962, 1565912531962
147, 0.00, 0.00, -8530.77, -27501.63, 5415.16, 0.00, 0.00, 0.00, 0.000, 0.000, 0.000, 19:42:11.970, 1565912531970
148, 0.00, 0.00, -8696.73, -27517.16, 5399.26, 0.00, 0.00, 0.00, 0.000, 0.000, 0.000, 19:42:11.970, 1565912531970
149, 0.00, 0.00, -8726.37, -27517.52, 5394.10, 0.00, 0.00, 0.00, 0.000, 0.000, 0.000, 19:42:11.978, 1565912531978
150, 0.00, 0.00, -8547.53, -27503.37, 5408.21, 0.00, 0.00, 0.00, 0.000, 0.000, 0.000, 19:42:11.978, 1565912531978
151, 0.00, 0.00, -8525.76, -27504.18, 5410.73, 0.00, 0.00, 0.00, 0.000, 0.000, 0.000, 19:42:11.986, 1565912531986
152, 0.00, 0.00, -8673.24, -27516.14, 5397.12, 0.00, 0.00, 0.00, 0.000, 0.000, 0.000, 19:42:11.986, 1565912531986
153, 0.00, 0.00, -8746.89, -27517.23, 5391.15, 0.00, 0.00, 0.00, 0.000, 0.000, 0.000, 19:42:11.992, 1565912531992
154, 0.00, 0.00, -8574.58, -27507.11, 5400.38, 0.00, 0.00, 0.00, 0.000, 0.000, 0.000, 19:42:11.998, 1565912531998
155, 0.00, 0.00, -8515.79, -27502.12, 5410.17, 0.00, 0.00, 0.00, 0.010, 0.016, 0.966, 19:42:11.998, 1565912531998
156, 0.00, 0.00, -8642.39, -27511.89, 5402.44, 0.00, 0.00, 0.00, 0.000, 0.000, 0.000, 19:42:12.006, 1565912532006
157, 0.00, 0.00, -8759.31, -27519.96, 5391.82, 0.00, 0.00, 0.00, 0.000, 0.000, 0.000, 19:42:12.007, 1565912532007
158, 0.00, 0.00, -8598.63, -27504.40, 5407.47, 0.00, 0.00, 0.00, 0.000, 0.000, 0.000, 19:42:12.013, 1565912532013
159, 0.00, 0.00, -8508.68, -27495.80, 5421.15, 0.00, 0.00, 0.00, 0.000, 0.000, 0.000, 19:42:12.013, 1565912532013
160, 0.00, 0.00, -8601.31, -27503.26, 5414.55, 0.00, 0.00, 0.00, 0.000, 0.000, 0.000, 19:42:12.021, 1565912532021
161, 0.00, 0.00, -8748.38, -27512.31, 5402.15, 0.00, 0.00, 0.00, 0.000, 0.000, 0.000, 19:42:12.021, 1565912532021
162, 0.00, 0.00, -8629.02, -27498.48, 5412.77, 0.00, 0.00, 0.00, 0.000, 0.000, 0.000, 19:42:12.036, 1565912532036
163, 0.00, 0.00, -8507.95, -27489.98, 5424.16, 0.00, 0.00, 0.00, 0.000, 0.000, 0.000, 19:42:12.036, 1565912532036
164, 0.00, 0.00, -8571.49, -27493.14, 5423.40, 0.00, 0.00, 0.00, 0.000, 0.000, 0.000, 19:42:12.051, 1565912532051
165, 0.00, 0.00, -8738.46, -27506.64, 5406.10, 0.00, 0.00, 0.00, 0.004, 0.018, 0.968, 19:42:12.057, 1565912532057
166, 0.00, 0.00, -8663.36, -27496.36, 5412.30, 0.00, 0.00, 0.00, 0.000, 0.000, 0.000, 19:42:12.057, 1565912532057
167, 0.00, 0.00, -8510.87, -27483.46, 5429.33, 0.00, 0.00, 0.00, 0.000, 0.000, 0.000, 19:42:12.063, 1565912532063
168, 0.00, 0.00, -8542.90, -27484.13, 5431.90, 0.00, 0.00, 0.00, 0.000, 0.000, 0.000, 19:42:12.063, 1565912532063
169, 0.00, 0.00, -8715.10, -27496.62, 5418.20, 0.00, 0.00, 0.00, 0.000, 0.000, 0.000, 19:42:12.069, 1565912532069
170, 0.00, 0.00, -8691.23, -27495.30, 5416.01, 0.00, 0.00, 0.00, 0.000, 0.000, 0.000, 19:42:12.069, 1565912532069
171, 0.00, 0.00, -8516.17, -27481.45, 5430.80, 0.00, 0.00, 0.00, 0.000, 0.000, 0.000, 19:42:12.075, 1565912532075
172, 0.00, 0.00, -8525.18, -27485.71, 5428.55, 0.00, 0.00, 0.00, 0.000, 0.000, 0.000, 19:42:12.075, 1565912532075
173, 0.00, 0.00, -8689.51, -27501.41, 5413.44, 0.00, 0.00, 0.00, 0.000, 0.000, 0.000, 19:42:12.081, 1565912532081
174, 0.00, 0.00, -8713.78, -27498.34, 5412.88, 0.00, 0.00, 0.00, 0.000, 0.000, 0.000, 19:42:12.081, 1565912532081
175, 0.00, 0.00, -8534.14, -27482.61, 5429.19, 0.00, 0.00, 0.00, 0.008, 0.020, 0.970, 19:42:12.087, 1565912532087
176, 0.00, 0.00, -8508.15, -27479.39, 5435.63, 0.00, 0.00, 0.00, 0.000, 0.000, 0.000, 19:42:12.088, 1565912532088
177, 0.00, 0.00, -8651.67, -27494.08, 5419.23, 0.00, 0.00, 0.00, 0.000, 0.000, 0.000, 19:42:12.094, 1565912532094
178, 0.00, 0.00, -8729.38, -27496.24, 5415.63, 0.00, 0.00, 0.00, 0.000, 0.000, 0.000, 19:42:12.094, 1565912532094
179, 0.00, 0.00, -8553.30, -27482.12, 5429.42, 0.00, 0.00, 0.00, 0.000, 0.000, 0.000, 19:42:12.100, 1565912532100
180, 0.00, 0.00, -8500.35, -27485.38, 5428.84, 0.00, 0.00, 0.00, 0.000, 0.000, 0.000, 19:42:12.106, 1565912532106
181, 0.00, 0.00, -8623.17, -27501.03, 5414.46, 0.00, 0.00, 0.00, 0.000, 0.000, 0.000, 19:42:12.106, 1565912532106
182, 0.00, 0.00, -8745.43, -27509.88, 5402.08, 0.00, 0.00, 0.00, 0.000, 0.000, 0.000, 19:42:12.112, 1565912532112
183, 0.00, 0.00, -8592.59, -27491.04, 5416.92, 0.00, 0.00, 0.00, 0.000, 0.000, 0.000, 19:42:12.112, 1565912532112
184, 0.00, 0.00, -8499.72, -27482.07, 5425.28, 0.00, 0.00, 0.00, 0.000, 0.000, 0.000, 19:42:12.118, 1565912532118
185, 0.00, 0.00, -8589.64, -27491.33, 5418.44, 0.00, 0.00, 0.00, 0.012, 0.020, 0.964, 19:42:12.118, 1565912532118
186, 0.00, 0.00, -8737.90, -27502.12, 5407.92, 0.00, 0.00, 0.00, 0.000, 0.000, 0.000, 19:42:12.126, 1565912532126
187, 0.00, 0.00, -8625.07, -27494.25, 5415.83, 0.00, 0.00, 0.00, 0.000, 0.000, 0.000, 19:42:12.126, 1565912532126
188, 0.00, 0.00, -8503.21, -27489.25, 5425.06, 0.00, 0.00, 0.00, 0.000, 0.000, 0.000, 19:42:12.134, 1565912532134
189, 0.00, 0.00, -8566.78, -27497.38, 5418.11, 0.00, 0.00, 0.00, 0.000, 0.000, 0.000, 19:42:12.134, 1565912532134
190, 0.00, 0.00, -8730.12, -27505.59, 5408.43, 0.00, 0.00, 0.00, 0.000, 0.000, 0.000, 19:42:12.142, 1565912532142
191, 0.00, 0.00, -8663.67, -27502.52, 5408.90, 0.00, 0.00, 0.00, 0.000, 0.000, 0.000, 19:42:12.142, 1565912532142
192, 0.00, 0.00, -8515.43, -27494.21, 5420.81, 0.00, 0.00, 0.00, 0.000, 0.000, 0.000, 19:42:12.149, 1565912532149
193, 0.00, 0.00, -8547.42, -27495.93, 5420.92, 0.00, 0.00, 0.00, 0.000, 0.000, 0.000, 19:42:12.149, 1565912532149
194, 0.00, 0.00, -8727.06, -27515.67, 5398.57, 0.00, 0.00, 0.00, 0.012, 0.016, 0.964, 19:42:12.155, 1565912532155
195, 0.00, 0.00, -8708.89, -27507.46, 5403.76, 0.00, 0.00, 0.00, 0.000, 0.000, 0.000, 19:42:12.162, 1565912532162
196, 0.00, 0.00, -8532.76, -27494.57, 5417.68, 0.00, 0.00, 0.00, 0.000, 0.000, 0.000, 19:42:12.163, 1565912532163
197, 0.00, 0.00, -8535.21, -27496.13, 5420.03, 0.00, 0.00, 0.00, 0.000, 0.000, 0.000, 19:42:12.170, 1565912532170
198, 0.00, 0.00, -8696.91, -27510.57, 5403.74, 0.00, 0.00, 0.00, 0.000, 0.000, 0.000, 19:42:12.170, 1565912532170
199, 0.00, 0.00, -8731.98, -27510.68, 5401.99, 0.00, 0.00, 0.00, 0.000, 0.000, 0.000, 19:42:12.177, 1565912532177
200, 0.00, 0.00, -8548.80, -27492.98, 5421.15, 0.00, 0.00, 0.00, 0.000, 0.000, 0.000, 19:42:12.177, 1565912532177
201, 0.00, 0.00, -8516.17, -27492.73, 5425.42, 0.00, 0.00, 0.00, 0.000, 0.000, 0.000, 19:42:12.184, 1565912532184
202, 0.00, 0.00, -8658.37, -27505.52, 5411.54, 0.00, 0.00, 0.00, 0.000, 0.000, 0.000, 19:42:12.185, 1565912532185
203, 0.00, 0.00, -8744.85, -27516.38, 5397.23, 0.00, 0.00, 0.00, 0.000, 0.000, 0.000, 19:42:12.193, 1565912532193
204, 0.00, 0.00, -8574.33, -27502.39, 5408.88, 0.00, 0.00, 0.00, 0.006, 0.020, 0.958, 19:42:12.193, 1565912532193
205, 0.00, 0.00, -8511.43, -27497.52, 5417.68, 0.00, 0.00, 0.00, 0.000, 0.000, 0.000, 19:42:12.201, 1565912532201
206, 0.00, 0.00, -8624.22, -27506.26, 5409.21, 0.00, 0.00, 0.00, 0.000, 0.000, 0.000, 19:42:12.202, 1565912532202
207, 0.00, 0.00, -8755.16, -27519.06, 5394.95, 0.00, 0.00, 0.00, 0.000, 0.000, 0.000, 19:42:12.209, 1565912532209
208, 0.00, 0.00, -8605.80, -27507.22, 5407.65, 0.00, 0.00, 0.00, 0.000, 0.000, 0.000, 19:42:12.209, 1565912532209
209, 0.00, 0.00, -8506.31, -27501.41, 5415.85, 0.00, 0.00, 0.00, 0.000, 0.000, 0.000, 19:42:12.215, 1565912532215
210, 0.00, 0.00, -8603.45, -27517.88, 5400.49, 0.00, 0.00, 0.00, 0.000, 0.000, 0.000, 19:42:12.224, 1565912532224
211, 0.00, 0.00, -8762.89, -27531.78, 5385.54, 0.00, 0.00, 0.00, 0.000, 0.000, 0.000, 19:42:12.224, 1565912532224
212, 0.00, 0.00, -8652.83, -27519.00, 5395.40, 0.00, 0.00, 0.00, 0.000, 0.000, 0.000, 19:42:12.232, 1565912532232
213, 0.00, 0.00, -8520.62, -27505.47, 5412.01, 0.00, 0.00, 0.00, 0.000, 0.000, 0.000, 19:42:12.232, 1565912532232
214, 0.00, 0.00, -8578.96, -27512.45, 5406.86, 0.00, 0.00, 0.00, 0.002, 0.014, 0.968, 19:42:12.238, 1565912532238
215, 0.00, 0.00, -8749.63, -27527.07, 5392.76, 0.00, 0.00, 0.00, 0.000, 0.000, 0.000, 19:42:12.238, 1565912532238
216, 0.00, 0.00, -8688.77, -27521.84, 5396.20, 0.00, 0.00, 0.00, 0.000, 0.000, 0.000, 19:42:12.245, 1565912532245
217, 0.00, 0.00, -8528.29, -27507.73, 5411.29, 0.00, 0.00, 0.00, 0.000, 0.000, 0.000, 19:42:12.245, 1565912532245
218, 0.00, 0.00, -8554.82, -27505.88, 5416.03, 0.00, 0.00, 0.00, 0.000, 0.000, 0.000, 19:42:12.253, 1565912532253
219, 0.00, 0.00, -8719.82, -27516.38, 5404.23, 0.00, 0.00, 0.00, 0.000, 0.000, 0.000, 19:42:12.253, 1565912532253
220, 0.00, 0.00, -8715.10, -27517.61, 5401.14, 0.00, 0.00, 0.00, 0.000, 0.000, 0.000, 19:42:12.259, 1565912532259
221, 0.00, 0.00, -8539.55, -27501.92, 5418.06, 0.00, 0.00, 0.00, 0.000, 0.000, 0.000, 19:42:12.259, 1565912532259
222, 0.00, 0.00, -8538.37, -27506.41, 5413.57, 0.00, 0.00, 0.00, 0.000, 0.000, 0.000, 19:42:12.268, 1565912532268
223, 0.00, 0.00, -8703.63, -27524.74, 5396.72, 0.00, 0.00, 0.00, 0.000, 0.000, 0.000, 19:42:12.268, 1565912532268
224, 0.00, 0.00, -8742.15, -27523.76, 5394.35, 0.00, 0.00, 0.00, 0.004, 0.022, 0.964, 19:42:12.275, 1565912532275
225, 0.00, 0.00, -8563.56, -27507.91, 5409.39, 0.00, 0.00, 0.00, 0.000, 0.000, 0.000, 19:42:12.275, 1565912532275
226, 0.00, 0.00, -8531.24, -27507.26, 5414.02, 0.00, 0.00, 0.00, 0.000, 0.000, 0.000, 19:42:12.282, 1565912532282
227, 0.00, 0.00, -8661.30, -27516.47, 5404.29, 0.00, 0.00, 0.00, 0.000, 0.000, 0.000, 19:42:12.291, 1565912532291
228, 0.00, 0.00, -8753.50, -27521.41, 5394.12, 0.00, 0.00, 0.00, 0.000, 0.000, 0.000, 19:42:12.291, 1565912532291
229, 0.00, 0.00, -8588.81, -27511.06, 5403.11, 0.00, 0.00, 0.00, 0.000, 0.000, 0.000, 19:42:12.298, 1565912532298
230, 0.00, 0.00, -8517.27, -27505.77, 5413.01, 0.00, 0.00, 0.00, 0.000, 0.000, 0.000, 19:42:12.299, 1565912532299
231, 0.00, 0.00, -8629.27, -27512.69, 5408.63, 0.00, 0.00, 0.00, 0.000, 0.000, 0.000, 19:42:12.307, 1565912532307
232, 0.00, 0.00, -8762.00, -27524.25, 5393.61, 0.00, 0.00, 0.00, 0.000, 0.000, 0.000, 19:42:12.307, 1565912532307
233, 0.00, 0.00, -8624.42, -27517.61, 5400.02, 0.00, 0.00, 0.00, 0.000, 0.000, 0.000, 19:42:12.314, 1565912532314
234, 0.00, 0.00, -8517.80, -27506.03, 5417.75, 0.00, 0.00, 0.00, 0.008, 0.020, 0.962, 19:42:12.314, 1565912532314
235, 0.00, 0.00, -8594.16, -27507.20, 5419.16, 0.00, 0.00, 0.00, 0.000, 0.000, 0.000, 19:42:12.320, 1565912532320
236, 0.00, 0.00, -8755.67, -27526.08, 5398.48, 0.00, 0.00, 0.00, 0.000, 0.000, 0.000, 19:42:12.320, 1565912532320
237, 0.00, 0.00, -8651.56, -27519.69, 5403.15, 0.00, 0.00, 0.00, 0.000, 0.000, 0.000, 19:42:12.328, 1565912532328
238, 0.00, 0.00, -8518.90, -27511.15, 5412.09, 0.00, 0.00, 0.00, 0.000, 0.000, 0.000, 19:42:12.328, 1565912532328
239, 0.00, 0.00, -8576.90, -27519.56, 5403.80, 0.00, 0.00, 0.00, 0.000, 0.000, 0.000, 19:42:12.336, 1565912532336
240, 0.00, 0.00, -8754.78, -27540.88, 5380.69, 0.00, 0.00, 0.00, 0.000, 0.000, 0.000, 19:42:12.336, 1565912532336
241, 0.00, 0.00, -8690.56, -27529.64, 5389.14, 0.00, 0.00, 0.00, 0.000, 0.000, 0.000, 19:42:12.343, 1565912532343
242, 0.00, 0.00, -8531.71, -27518.68, 5403.27, 0.00, 0.00, 0.00, 0.000, 0.000, 0.000, 19:42:12.349, 1565912532349
243, 0.00, 0.00, -8559.71, -27522.28, 5398.80, 0.00, 0.00, 0.00, 0.000, 0.000, 0.000, 19:42:12.349, 1565912532349
244, 0.00, 0.00, -8728.22, -27534.67, 5383.15, 0.00, 0.00, 0.00, 0.010, 0.018, 0.972, 19:42:12.358, 1565912532358
245, 0.00, 0.00, -8723.91, -27529.99, 5384.78, 0.00, 0.00, 0.00, 0.000, 0.000, 0.000, 19:42:12.358, 1565912532358
246, 0.00, 0.00, -8537.18, -27509.27, 5405.12, 0.00, 0.00, 0.00, 0.000, 0.000, 0.000, 19:42:12.365, 1565912532365
247, 0.00, 0.00, -8528.33, -27512.34, 5404.41, 0.00, 0.00, 0.00, 0.000, 0.000, 0.000, 19:42:12.365, 1565912532365
248, 0.00, 0.00, -8688.59, -27528.56, 5387.51, 0.00, 0.00, 0.00, 0.000, 0.000, 0.000, 19:42:12.374, 1565912532374
249, 0.00, 0.00, -8742.13, -27532.54, 5380.69, 0.00, 0.00, 0.00, 0.000, 0.000, 0.000, 19:42:12.374, 1565912532374
250, 0.00, 0.00, -8567.09, -27520.79, 5393.54, 0.00, 0.00, 0.00, 0.000, 0.000, 0.000, 19:42:12.382, 1565912532382
251, 0.00, 0.00, -8527.64, -27517.03, 5401.63, 0.00, 0.00, 0.00, 0.000, 0.000, 0.000, 19:42:12.382, 1565912532382
252, 0.00, 0.00, -8659.78, -27525.95, 5396.23, 0.00, 0.00, 0.00, 0.000, 0.000, 0.000, 19:42:12.389, 1565912532389
253, 0.00, 0.00, -8762.58, -27539.34, 5379.42, 0.00, 0.00, 0.00, 0.012, 0.018, 0.970, 19:42:12.390, 1565912532390
254, 0.00, 0.00, -8601.71, -27528.23, 5390.15, 0.00, 0.00, 0.00, 0.000, 0.000, 0.000, 19:42:12.396, 1565912532396
255, 0.00, 0.00, -8528.13, -27520.92, 5401.54, 0.00, 0.00, 0.00, 0.000, 0.000, 0.000, 19:42:12.396, 1565912532396
0, 0.00, 0.00, -8635.55, -27533.68, 5389.45, 0.00, 0.00, 0.00, 0.000, 0.000, 0.000, 19:42:12.402, 1565912532402
1, 0.00, 0.00, -8772.88, -27544.52, 5376.44, 0.00, 0.00, 0.00, 0.000, 0.000, 0.000, 19:42:12.412, 1565912532412
2, 0.00, 0.00, -8636.18, -27530.26, 5386.23, 0.00, 0.00, 0.00, 0.000, 0.000, 0.000, 19:42:12.412, 1565912532412
3, 0.00, 0.00, -8528.69, -27524.70, 5394.12, 0.00, 0.00, 0.00, 0.000, 0.000, 0.000, 19:42:12.420, 1565912532420
4, 0.00, 0.00, -8608.82, -27531.89, 5390.19, 0.00, 0.00, 0.00, 0.000, 0.000, 0.000, 19:42:12.421, 1565912532421
5, 0.00, 0.00, -8768.05, -27550.69, 5367.32, 0.00, 0.00, 0.00, 0.000, 0.000, 0.000, 19:42:12.427, 1565912532427
6, 0.00, 0.00, -8673.62, -27541.64, 5371.88, 0.00, 0.00, 0.00, 0.000, 0.000, 0.000, 19:42:12.427, 1565912532427
7, 0.00, 0.00, -8532.35, -27528.83, 5386.77, 0.00, 0.00, 0.00, 0.010, 0.016, 0.970, 19:42:12.432, 1565912532432
8, 0.00, 0.00, -8580.68, -27530.55, 5388.69, 0.00, 0.00, 0.00, 0.000, 0.000, 0.000, 19:42:12.433, 1565912532433
9, 0.00, 0.00, -8756.74, -27545.44, 5370.72, 0.00, 0.00, 0.00, 0.000, 0.000, 0.000, 19:42:12.440, 1565912532440
10, 0.00, 0.00, -8717.49, -27546.96, 5363.03, 0.00, 0.00, 0.00, 0.000, 0.000, 0.000, 19:42:12.441, 1565912532441
11, 0.00, 0.00, -8551.08, -27530.49, 5381.25, 0.00, 0.00, 0.00, 0.000, 0.000, 0.000, 19:42:12.448, 1565912532448
12, 0.00, 0.00, -8565.50, -27530.17, 5383.02, 0.00, 0.00, 0.00, 0.000, 0.000, 0.000, 19:42:12.448, 1565912532448
13, 0.00, 0.00, -8732.04, -27546.27, 5364.17, 0.00, 0.00, 0.00, 0.000, 0.000, 0.000, 19:42:12.464, 1565912532464
14, 0.00, 0.00, -8743.60, -27547.92, 5358.41, 0.00, 0.00, 0.00, 0.000, 0.000, 0.000, 19:42:12.464, 1565912532464
15, 0.00, 0.00, -8563.94, -27528.77, 5378.57, 0.00, 0.00, 0.00, 0.000, 0.000, 0.000, 19:42:12.476, 1565912532476
16, 0.00, 0.00, -8548.49, -27525.59, 5385.47, 0.00, 0.00, 0.00, 0.000, 0.000, 0.000, 19:42:12.482, 1565912532482
17, 0.00, 0.00, -8698.74, -27536.43, 5376.62, 0.00, 0.00, 0.00, 0.008, 0.018, 0.976, 19:42:12.483, 1565912532483
18, 0.00, 0.00, -8761.82, -27543.36, 5368.51, 0.00, 0.00, 0.00, 0.000, 0.000, 0.000, 19:42:12.488, 1565912532488
19, 0.00, 0.00, -8582.44, -27525.26, 5386.57, 0.00, 0.00, 0.00, 0.000, 0.000, 0.000, 19:42:12.489, 1565912532489
20, 0.00, 0.00, -8535.44, -27518.39, 5394.35, 0.00, 0.00, 0.00, 0.000, 0.000, 0.000, 19:42:12.495, 1565912532495
21, 0.00, 0.00, -8671.02, -27532.01, 5380.53, 0.00, 0.00, 0.00, 0.000, 0.000, 0.000, 19:42:12.495, 1565912532495
22, 0.00, 0.00, -8780.03, -27543.23, 5366.70, 0.00, 0.00, 0.00, 0.000, 0.000, 0.000, 19:42:12.501, 1565912532501
23, 0.00, 0.00, -8617.85, -27535.40, 5373.83, 0.00, 0.00, 0.00, 0.000, 0.000, 0.000, 19:42:12.501, 1565912532501
24, 0.00, 0.00, -8537.85, -27528.77, 5385.47, 0.00, 0.00, 0.00, 0.000, 0.000, 0.000, 19:42:12.507, 1565912532507
25, 0.00, 0.00, -8639.33, -27531.58, 5385.88, 0.00, 0.00, 0.00, 0.000, 0.000, 0.000, 19:42:12.507, 1565912532507
26, 0.00, 0.00, -8778.58, -27540.28, 5373.92, 0.00, 0.00, 0.00, 0.000, 0.000, 0.000, 19:42:12.513, 1565912532513
27, 0.00, 0.00, -8632.40, -27518.73, 5392.76, 0.00, 0.00, 0.00, 0.010, 0.020, 0.968, 19:42:12.513, 1565912532513
28, 0.00, 0.00, -8515.25, -27509.99, 5404.72, 0.00, 0.00, 0.00, 0.000, 0.000, 0.000, 19:42:12.519, 1565912532519
29, 0.00, 0.00, -8599.92, -27527.47, 5390.64, 0.00, 0.00, 0.00, 0.000, 0.000, 0.000, 19:42:12.519, 1565912532519
30, 0.00, 0.00, -8765.71, -27540.46, 5374.30, 0.00, 0.00, 0.00, 0.000, 0.000, 0.000, 19:42:12.525, 1565912532525
31, 0.00, 0.00, -8671.74, -27527.07, 5384.96, 0.00, 0.00, 0.00, 0.000, 0.000, 0.000, 19:42:12.531, 1565912532531
32, 0.00, 0.00, -8524.37, -27516.83, 5398.64, 0.00, 0.00, 0.00, 0.000, 0.000, 0.000, 19:42:12.531, 1565912532531
33, 0.00, 0.00, -8572.61, -27523.87, 5394.50, 0.00, 0.00, 0.00, 0.000, 0.000, 0.000, 19:42:12.538, 1565912532538
34, 0.00, 0.00, -8744.49, -27540.84, 5375.46, 0.00, 0.00, 0.00, 0.000, 0.000, 0.000, 19:42:12.538, 1565912532538
35, 0.00, 0.00, -8698.83, -27535.36, 5377.34, 0.00, 0.00, 0.00, 0.000, 0.000, 0.000, 19:42:12.546, 1565912532546
36, 0.00, 0.00, -8536.96, -27525.17, 5389.79, 0.00, 0.00, 0.00, 0.000, 0.000, 0.000, 19:42:12.546, 1565912532546
37, 0.00, 0.00, -8557.86, -27530.31, 5388.38, 0.00, 0.00, 0.00, 0.010, 0.016, 0.966, 19:42:12.554, 1565912532554
38, 0.00, 0.00, -8722.81, -27544.39, 5371.08, 0.00, 0.00, 0.00, 0.000, 0.000, 0.000, 19:42:12.554, 1565912532554
39, 0.00, 0.00, -8737.32, -27546.00, 5365.02, 0.00, 0.00, 0.00, 0.000, 0.000, 0.000, 19:42:12.561, 1565912532561
40, 0.00, 0.00, -8555.00, -27523.98, 5389.07, 0.00, 0.00, 0.00, 0.000, 0.000, 0.000, 19:42:12.561, 1565912532561
41, 0.00, 0.00, -8535.35, -27521.66, 5392.54, 0.00, 0.00, 0.00, 0.000, 0.000, 0.000, 19:42:12.567, 1565912532567
42, 0.00, 0.00, -8691.56, -27541.21, 5372.87, 0.00, 0.00, 0.00, 0.000, 0.000, 0.000, 19:42:12.568, 1565912532568
43, 0.00, 0.00, -8763.47, -27550.83, 5359.59, 0.00, 0.00, 0.00, 0.000, 0.000, 0.000, 19:42:12.575, 1565912532575
44, 0.00, 0.00, -8584.66, -27533.59, 5376.35, 0.00, 0.00, 0.00, 0.000, 0.000, 0.000, 19:42:12.575, 1565912532575
45, 0.00, 0.00, -8531.93, -27526.11, 5388.58, 0.00, 0.00, 0.00, 0.000, 0.000, 0.000, 19:42:12.582, 1565912532582
46, 0.00, 0.00, -8658.24, -27538.60, 5376.91, 0.00, 0.00, 0.00, 0.000, 0.000, 0.000, 19:42:12.589, 1565912532589
47, 0.00, 0.00, -8767.23, -27543.83, 5368.58, 0.00, 0.00, 0.00, 0.010, 0.016, 0.964, 19:42:12.590, 1565912532590
48, 0.00, 0.00, -8600.33, -27522.02, 5389.97, 0.00, 0.00, 0.00, 0.000, 0.000, 0.000, 19:42:12.597, 1565912532597
49, 0.00, 0.00, -8514.79, -27515.15, 5399.35, 0.00, 0.00, 0.00, 0.000, 0.000, 0.000, 19:42:12.597, 1565912532597
50, 0.00, 0.00, -8619.23, -27528.01, 5388.40, 0.00, 0.00, 0.00, 0.000, 0.000, 0.000, 19:42:12.605, 1565912532605
51, 0.00, 0.00, -8770.71, -27547.65, 5367.82, 0.00, 0.00, 0.00, 0.000, 0.000, 0.000, 19:42:12.605, 1565912532605
52, 0.00, 0.00, -8639.22, -27533.46, 5381.45, 0.00, 0.00, 0.00, 0.000, 0.000, 0.000, 19:42:12.613, 1565912532613
53, 0.00, 0.00, -8518.83, -27522.69, 5394.95, 0.00, 0.00, 0.00, 0.000, 0.000, 0.000, 19:42:12.613, 1565912532613
54, 0.00, 0.00, -8590.09, -27527.16, 5391.91, 0.00, 0.00, 0.00, 0.000, 0.000, 0.000, 19:42:12.621, 1565912532621
55, 0.00, 0.00, -8756.25, -27540.90, 5376.06, 0.00, 0.00, 0.00, 0.000, 0.000, 0.000, 19:42:12.621, 1565912532621
56, 0.00, 0.00, -8662.73, -27529.84, 5384.11, 0.00, 0.00, 0.00, 0.000, 0.000, 0.000, 19:42:12.629, 1565912532629
57, 0.00, 0.00, -8511.32, -27514.26, 5403.29, 0.00, 0.00, 0.00, 0.014, 0.014, 0.964, 19:42:12.629, 1565912532629
58, 0.00, 0.00, -8555.42, -27520.94, 5400.36, 0.00, 0.00, 0.00, 0.000, 0.000, 0.000, 19:42:12.637, 1565912532637
59, 0.00, 0.00, -8731.69, -27540.97, 5378.99, 0.00, 0.00, 0.00, 0.000, 0.000, 0.000, 19:42:12.637, 1565912532637
60, 0.00, 0.00, -8694.56, -27532.36, 5384.56, 0.00, 0.00, 0.00, 0.000, 0.000, 0.000, 19:42:12.643, 1565912532643
61, 0.00, 0.00, -8523.17, -27514.42, 5407.29, 0.00, 0.00, 0.00, 0.000, 0.000, 0.000, 19:42:12.649, 1565912532649
62, 0.00, 0.00, -8538.19, -27521.21, 5403.56, 0.00, 0.00, 0.00, 0.000, 0.000, 0.000, 19:42:12.649, 1565912532649
63, 0.00, 0.00, -8708.28, -27537.75, 5383.75, 0.00, 0.00, 0.00, 0.000, 0.000, 0.000, 19:42:12.657, 1565912532657
64, 0.00, 0.00, -8724.87, -27535.96, 5379.98, 0.00, 0.00, 0.00, 0.000, 0.000, 0.000, 19:42:12.657, 1565912532657
65, 0.00, 0.00, -8541.07, -27516.81, 5401.88, 0.00, 0.00, 0.00, 0.000, 0.000, 0.000, 19:42:12.665, 1565912532665
66, 0.00, 0.00, -8519.34, -27513.61, 5407.09, 0.00, 0.00, 0.00, 0.010, 0.018, 0.964, 19:42:12.665, 1565912532665
67, 0.00, 0.00, -8671.72, -27528.43, 5390.30, 0.00, 0.00, 0.00, 0.000, 0.000, 0.000, 19:42:12.672, 1565912532672
68, 0.00, 0.00, -8747.71, -27530.26, 5384.33, 0.00, 0.00, 0.00, 0.000, 0.000, 0.000, 19:42:12.672, 1565912532672
69, 0.00, 0.00, -8567.67, -27511.67, 5402.95, 0.00, 0.00, 0.00, 0.000, 0.000, 0.000, 19:42:12.680, 1565912532680
70, 0.00, 0.00, -8514.25, -27515.60, 5401.77, 0.00, 0.00, 0.00, 0.000, 0.000, 0.000, 19:42:12.680, 1565912532680
71, 0.00, 0.00, -8644.07, -27530.55, 5387.13, 0.00, 0.00, 0.00, 0.000, 0.000, 0.000, 19:42:12.688, 1565912532688
72, 0.00, 0.00, -8761.15, -27535.96, 5378.30, 0.00, 0.00, 0.00, 0.000, 0.000, 0.000, 19:42:12.688, 1565912532688
73, 0.00, 0.00, -8602.34, -27520.90, 5393.45, 0.00, 0.00, 0.00, 0.000, 0.000, 0.000, 19:42:12.696, 1565912532696
74, 0.00, 0.00, -8510.23, -27512.22, 5406.13, 0.00, 0.00, 0.00, 0.000, 0.000, 0.000, 19:42:12.696, 1565912532696
75, 0.00, 0.00, -8604.73, -27521.19, 5400.27, 0.00, 0.00, 0.00, 0.000, 0.000, 0.000, 19:42:12.703, 1565912532703
76, 0.00, 0.00, -8758.64, -27535.05, 5384.13, 0.00, 0.00, 0.00, 0.008, 0.024, 0.966, 19:42:12.703, 1565912532703
77, 0.00, 0.00, -8638.55, -27522.98, 5391.75, 0.00, 0.00, 0.00, 0.000, 0.000, 0.000, 19:42:12.711, 1565912532711
78, 0.00, 0.00, -8515.61, -27512.18, 5407.40, 0.00, 0.00, 0.00, 0.000, 0.000, 0.000, 19:42:12.720, 1565912532720
79, 0.00, 0.00, -8584.54, -27524.07, 5397.45, 0.00, 0.00, 0.00, 0.000, 0.000, 0.000, 19:42:12.720, 1565912532720
80, 0.00, 0.00, -8754.19, -27538.98, 5380.00, 0.00, 0.00, 0.00, 0.000, 0.000, 0.000, 19:42:12.726, 1565912532726
81, 0.00, 0.00, -8671.36, -27527.71, 5388.45, 0.00, 0.00, 0.00, 0.000, 0.000, 0.000, 19:42:12.726, 1565912532726
82, 0.00, 0.00, -8521.07, -27516.70, 5403.00, 0.00, 0.00, 0.00, 0.000, 0.000, 0.000, 19:42:12.732, 1565912532732
83, 0.00, 0.00, -8554.77, -27517.99, 5404.03, 0.00, 0.00, 0.00, 0.000, 0.000, 0.000, 19:42:12.732, 1565912532732
84, 0.00, 0.00, -8730.64, -27532.54, 5388.54, 0.00, 0.00, 0.00, 0.000, 0.000, 0.000, 19:42:12.740, 1565912532740
85, 0.00, 0.00, -8702.23, -27528.36, 5389.92, 0.00, 0.00, 0.00, 0.000, 0.000, 0.000, 19:42:12.740, 1565912532740
86, 0.00, 0.00, -8527.28, -27512.20, 5409.14, 0.00, 0.00, 0.00, 0.004, 0.016, 0.964, 19:42:12.748, 1565912532748
87, 0.00, 0.00, -8533.58, -27509.88, 5415.13, 0.00, 0.00, 0.00, 0.000, 0.000, 0.000, 19:42:12.748, 1565912532748
88, 0.00, 0.00, -8699.37, -27527.29, 5396.18, 0.00, 0.00, 0.00, 0.000, 0.000, 0.000, 19:42:12.755, 1565912532755
89, 0.00, 0.00, -8724.94, -27524.96, 5395.13, 0.00, 0.00, 0.00, 0.000, 0.000, 0.000, 19:42:12.755, 1565912532755
90, 0.00, 0.00, -8543.60, -27506.10, 5418.69, 0.00, 0.00, 0.00, 0.000, 0.000, 0.000, 19:42:12.763, 1565912532763
91, 0.00, 0.00, -8519.66, -27509.41, 5416.79, 0.00, 0.00, 0.00, 0.000, 0.000, 0.000, 19:42:12.763, 1565912532763
92, 0.00, 0.00, -8664.45, -27527.33, 5397.07, 0.00, 0.00, 0.00, 0.000, 0.000, 0.000, 19:42:12.769, 1565912532769
93, 0.00, 0.00, -8744.25, -27533.15, 5388.60, 0.00, 0.00, 0.00, 0.000, 0.000, 0.000, 19:42:12.777, 1565912532777
94, 0.00, 0.00, -8568.21, -27517.72, 5402.19, 0.00, 0.00, 0.00, 0.000, 0.000, 0.000, 19:42:12.778, 1565912532778
95, 0.00, 0.00, -8513.15, -27510.84, 5413.23, 0.00, 0.00, 0.00, 0.000, 0.000, 0.000, 19:42:12.785, 1565912532785
96, 0.00, 0.00, -8636.76, -27522.51, 5402.04, 0.00, 0.00, 0.00, 0.004, 0.018, 0.964, 19:42:12.785, 1565912532785
97, 0.00, 0.00, -8758.53, -27532.21, 5389.77, 0.00, 0.00, 0.00, 0.000, 0.000, 0.000, 19:42:12.793, 1565912532793
98, 0.00, 0.00, -8607.92, -27520.67, 5401.88, 0.00, 0.00, 0.00, 0.000, 0.000, 0.000, 19:42:12.794, 1565912532794
99, 0.00, 0.00, -8513.73, -27511.76, 5413.68, 0.00, 0.00, 0.00, 0.000, 0.000, 0.000, 19:42:12.802, 1565912532802
100, 0.00, 0.00, -8606.63, -27523.54, 5404.23, 0.00, 0.00, 0.00, 0.000, 0.000, 0.000, 19:42:12.802, 1565912532802
101, 0.00, 0.00, -8759.56, -27537.84, 5387.33, 0.00, 0.00, 0.00, 0.000, 0.000, 0.000, 19:42:12.808, 1565912532808
102, 0.00, 0.00, -8636.02, -27521.90, 5401.70, 0.00, 0.00, 0.00, 0.000, 0.000, 0.000, 19:42:12.808, 1565912532808
103, 0.00, 0.00, -8508.15, -27510.68, 5417.66, 0.00, 0.00, 0.00, 0.000, 0.000, 0.000, 19:42:12.815, 1565912532815
104, 0.00, 0.00, -8573.82, -27521.30, 5408.21, 0.00, 0.00, 0.00, 0.000, 0.000, 0.000, 19:42:12.815, 1565912532815
105, 0.00, 0.00, -8749.32, -27537.68, 5387.19, 0.00, 0.00, 0.00, 0.000, 0.000, 0.000, 19:42:12.823, 1565912532823
106, 0.00, 0.00, -8674.56, -27525.93, 5394.01, 0.00, 0.00, 0.00, 0.006, 0.020, 0.970, 19:42:12.823, 1565912532823
107, 0.00, 0.00, -8523.68, -27514.04, 5407.40, 0.00, 0.00, 0.00, 0.000, 0.000, 0.000, 19:42:12.830, 1565912532830
108, 0.00, 0.00, -8556.45, -27521.01, 5401.97, 0.00, 0.00, 0.00, 0.000, 0.000, 0.000, 19:42:12.837, 1565912532837
109, 0.00, 0.00, -8728.80, -27536.37, 5384.38, 0.00, 0.00, 0.00, 0.000, 0.000, 0.000, 19:42:12.837, 1565912532837
110, 0.00, 0.00, -8716.87, -27536.41, 5381.70, 0.00, 0.00, 0.00, 0.000, 0.000, 0.000, 19:42:12.844, 1565912532844
111, 0.00, 0.00, -8537.99, -27518.46, 5400.56, 0.00, 0.00, 0.00, 0.000, 0.000, 0.000, 19:42:12.845, 1565912532845
112, 0.00, 0.00, -8539.53, -27519.22, 5402.37, 0.00, 0.00, 0.00, 0.000, 0.000, 0.000, 19:42:12.852, 1565912532852
113, 0.00, 0.00, -8700.80, -27535.09, 5384.45, 0.00, 0.00, 0.00, 0.000, 0.000, 0.000, 19:42:12.853, 1565912532853
114, 0.00, 0.00, -8738.37, -27539.05, 5375.88, 0.00, 0.00, 0.00, 0.000, 0.000, 0.000, 19:42:12.860, 1565912532860
115, 0.00, 0.00, -8556.38, -27525.32, 5391.26, 0.00, 0.00, 0.00, 0.000, 0.000, 0.000, 19:42:12.860, 1565912532860
116, 0.00, 0.00, -8527.82, -27525.10, 5396.31, 0.00, 0.00, 0.00, 0.006, 0.018, 0.962, 19:42:12.868, 1565912532868
117, 0.00, 0.00, -8675.78, -27543.32, 5379.46, 0.00, 0.00, 0.00, 0.000, 0.000, 0.000, 19:42:12.868, 1565912532868
118, 0.00, 0.00, -8764.34, -27547.92, 5371.24, 0.00, 0.00, 0.00, 0.000, 0.000, 0.000, 19:42:12.876, 1565912532876
119, 0.00, 0.00, -8590.80, -27527.22, 5392.38, 0.00, 0.00, 0.00, 0.000, 0.000, 0.000, 19:42:12.876, 1565912532876
120, 0.00, 0.00, -8519.23, -27520.00, 5405.19, 0.00, 0.00, 0.00, 0.000, 0.000, 0.000, 19:42:12.884, 1565912532884
121, 0.00, 0.00, -8640.11, -27533.55, 5392.31, 0.00, 0.00, 0.00, 0.000, 0.000, 0.000, 19:42:12.885, 1565912532885
122, 0.00, 0.00, -8778.00, -27555.16, 5366.70, 0.00, 0.00, 0.00, 0.000, 0.000, 0.000, 19:42:12.891, 1565912532891
123, 0.00, 0.00, -8632.20, -27541.42, 5378.19, 0.00, 0.00, 0.00, 0.000, 0.000, 0.000, 19:42:12.897, 1565912532897
124, 0.00, 0.00, -8531.28, -27531.38, 5389.79, 0.00, 0.00, 0.00, 0.000, 0.000, 0.000, 19:42:12.897, 1565912532897
125, 0.00, 0.00, -8615.08, -27535.25, 5386.28, 0.00, 0.00, 0.00, 0.012, 0.022, 0.964, 19:42:12.905, 1565912532905
126, 0.00, 0.00, -8769.91, -27546.60, 5372.00, 0.00, 0.00, 0.00, 0.000, 0.000, 0.000, 19:42:12.905, 1565912532905
127, 0.00, 0.00, -8655.00, -27533.75, 5382.66, 0.00, 0.00, 0.00, 0.000, 0.000, 0.000, 19:42:12.913, 1565912532913
128, 0.00, 0.00, -8521.54, -27522.86, 5395.89, 0.00, 0.00, 0.00, 0.000, 0.000, 0.000, 19:42:12.913, 1565912532913
129, 0.00, 0.00, -8585.48, -27532.36, 5388.29, 0.00, 0.00, 0.00, 0.000, 0.000, 0.000, 19:42:12.929, 1565912532929
130, 0.00, 0.00, -8755.67, -27547.00, 5371.03, 0.00, 0.00, 0.00, 0.000, 0.000, 0.000, 19:42:12.929, 1565912532929
131, 0.00, 0.00, -8692.06, -27539.96, 5374.88, 0.00, 0.00, 0.00, 0.000, 0.000, 0.000, 19:42:12.935, 1565912532935
132, 0.00, 0.00, -8533.74, -27522.28, 5394.95, 0.00, 0.00, 0.00, 0.000, 0.000, 0.000, 19:42:12.936, 1565912532936
133, 0.00, 0.00, -8563.24, -27526.46, 5393.83, 0.00, 0.00, 0.00, 0.000, 0.000, 0.000, 19:42:12.941, 1565912532941
134, 0.00, 0.00, -8736.63, -27540.81, 5377.87, 0.00, 0.00, 0.00, 0.000, 0.000, 0.000, 19:42:12.941, 1565912532941
135, 0.00, 0.00, -8720.69, -27536.86, 5381.65, 0.00, 0.00, 0.00, 0.010, 0.018, 0.964, 19:42:12.948, 1565912532948
136, 0.00, 0.00, -8543.15, -27520.41, 5402.71, 0.00, 0.00, 0.00, 0.000, 0.000, 0.000, 19:42:12.954, 1565912532954
137, 0.00, 0.00, -8543.40, -27521.68, 5403.94, 0.00, 0.00, 0.00, 0.000, 0.000, 0.000, 19:42:12.954, 1565912532954
138, 0.00, 0.00, -8699.95, -27533.15, 5391.46, 0.00, 0.00, 0.00, 0.000, 0.000, 0.000, 19:42:12.960, 1565912532960
139, 0.00, 0.00, -8743.60, -27534.87, 5385.12, 0.00, 0.00, 0.00, 0.000, 0.000, 0.000, 19:42:12.960, 1565912532960
140, 0.00, 0.00, -8556.61, -27514.15, 5405.17, 0.00, 0.00, 0.00, 0.000, 0.000, 0.000, 19:42:12.967, 1565912532967
141, 0.00, 0.00, -8523.82, -27513.59, 5408.74, 0.00, 0.00, 0.00, 0.000, 0.000, 0.000, 19:42:12.967, 1565912532967
142, 0.00, 0.00, -8664.05, -27525.59, 5397.45, 0.00, 0.00, 0.00, 0.000, 0.000, 0.000, 19:42:12.973, 1565912532973
143, 0.00, 0.00, -8755.89, -27532.86, 5385.94, 0.00, 0.00, 0.00, 0.000, 0.000, 0.000, 19:42:12.973, 1565912532973
144, 0.00, 0.00, -8588.25, -27522.39, 5395.51, 0.00, 0.00, 0.00, 0.000, 0.000, 0.000, 19:42:12.979, 1565912532979
145, 0.00, 0.00, -8512.57, -27511.69, 5407.00, 0.00, 0.00, 0.00, 0.010, 0.016, 0.956, 19:42:12.979, 1565912532979
146, 0.00, 0.00, -8629.76, -27527.78, 5392.11, 0.00, 0.00, 0.00, 0.000, 0.000, 0.000, 19:42:12.987, 1565912532987
147, 0.00, 0.00, -8774.56, -27548.81, 5370.59, 0.00, 0.00, 0.00, 0.000, 0.000, 0.000, 19:42:12.987, 1565912532987
148, 0.00, 0.00, -8629.20, -27534.58, 5383.66, 0.00, 0.00, 0.00, 0.000, 0.000, 0.000, 19:42:12.994, 1565912532994
149, 0.00, 0.00, -8524.46, -27523.36, 5398.37, 0.00, 0.00, 0.00, 0.000, 0.000, 0.000, 19:42:12.994, 1565912532994
150, 0.00, 0.00, -8606.79, -27528.59, 5397.03, 0.00, 0.00, 0.00, 0.000, 0.000, 0.000, 19:42:13.001, 1565912533001
151, 0.00, 0.00, -8769.75, -27548.99, 5374.77, 0.00, 0.00, 0.00, 0.000, 0.000, 0.000, 19:42:13.001, 1565912533001
152, 0.00, 0.00, -8660.23, -27534.20, 5387.71, 0.00, 0.00, 0.00, 0.000, 0.000, 0.000, 19:42:13.009, 1565912533009
153, 0.00, 0.00, -8523.73, -27526.04, 5400.14, 0.00, 0.00, 0.00, 0.000, 0.000, 0.000, 19:42:13.017, 1565912533017
154, 0.00, 0.00, -8573.17, -27526.62, 5402.68, 0.00, 0.00, 0.00, 0.000, 0.000, 0.000, 19:42:13.017, 1565912533017
155, 0.00, 0.00, -8747.82, -27539.52, 5388.22, 0.00, 0.00, 0.00, 0.012, 0.014, 0.960, 19:42:13.027, 1565912533027
156, 0.00, 0.00, -8690.40, -27532.90, 5393.12, 0.00, 0.00, 0.00, 0.000, 0.000, 0.000, 19:42:13.027, 1565912533027
157, 0.00, 0.00, -8529.47, -27518.37, 5409.95, 0.00, 0.00, 0.00, 0.000, 0.000, 0.000, 19:42:13.034, 1565912533034
158, 0.00, 0.00, -8552.02, -27519.29, 5410.11, 0.00, 0.00, 0.00, 0.000, 0.000, 0.000, 19:42:13.034, 1565912533034
159, 0.00, 0.00, -8714.56, -27529.35, 5399.20, 0.00, 0.00, 0.00, 0.000, 0.000, 0.000, 19:42:13.040, 1565912533040
160, 0.00, 0.00, -8712.51, -27523.65, 5400.20, 0.00, 0.00, 0.00, 0.000, 0.000, 0.000, 19:42:13.041, 1565912533041
161, 0.00, 0.00, -8534.54, -27511.13, 5410.31, 0.00, 0.00, 0.00, 0.000, 0.000, 0.000, 19:42:13.047, 1565912533047
162, 0.00, 0.00, -8532.64, -27515.60, 5408.09, 0.00, 0.00, 0.00, 0.000, 0.000, 0.000, 19:42:13.047, 1565912533047
163, 0.00, 0.00, -8695.77, -27534.04, 5390.55, 0.00, 0.00, 0.00, 0.000, 0.000, 0.000, 19:42:13.055, 1565912533055
164, 0.00, 0.00, -8746.46, -27535.54, 5385.54, 0.00, 0.00, 0.00, 0.000, 0.000, 0.000, 19:42:13.055, 1565912533055
165, 0.00, 0.00, -8566.93, -27522.42, 5399.04, 0.00, 0.00, 0.00, 0.010, 0.016, 0.956, 19:42:13.062, 1565912533062
166, 0.00, 0.00, -8531.95, -27520.63, 5406.17, 0.00, 0.00, 0.00, 0.000, 0.000, 0.000, 19:42:13.062, 1565912533062
167, 0.00, 0.00, -8672.37, -27536.03, 5391.78, 0.00, 0.00, 0.00, 0.000, 0.000, 0.000, 19:42:13.068, 1565912533068
168, 0.00, 0.00, -8774.31, -27545.78, 5379.04, 0.00, 0.00, 0.00, 0.000, 0.000, 0.000, 19:42:13.076, 1565912533076
169, 0.00, 0.00, -8606.40, -27530.11, 5394.15, 0.00, 0.00, 0.00, 0.000, 0.000, 0.000, 19:42:13.077, 1565912533077
170, 0.00, 0.00, -8530.99, -27526.08, 5403.35, 0.00, 0.00, 0.00, 0.000, 0.000, 0.000, 19:42:13.084, 1565912533084
171, 0.00, 0.00, -8637.70, -27535.49, 5394.12, 0.00, 0.00, 0.00, 0.000, 0.000, 0.000, 19:42:13.085, 1565912533085
172, 0.00, 0.00, -8770.58, -27546.71, 5378.17, 0.00, 0.00, 0.00, 0.000, 0.000, 0.000, 19:42:13.092, 1565912533092
173, 0.00, 0.00, -8632.00, -27531.85, 5389.81, 0.00, 0.00, 0.00, 0.000, 0.000, 0.000, 19:42:13.093, 1565912533093
174, 0.00, 0.00, -8529.31, -27525.03, 5399.06, 0.00, 0.00, 0.00, 0.000, 0.000, 0.000, 19:42:13.100, 1565912533100
175, 0.00, 0.00, -8605.62, -27530.22, 5394.35, 0.00, 0.00, 0.00, 0.006, 0.014, 0.960, 19:42:13.100, 1565912533100
176, 0.00, 0.00, -8771.07, -27543.36, 5378.54, 0.00, 0.00, 0.00, 0.000, 0.000, 0.000, 19:42:13.108, 1565912533108
177, 0.00, 0.00, -8674.71, -27539.67, 5380.91, 0.00, 0.00, 0.00, 0.000, 0.000, 0.000, 19:42:13.108, 1565912533108
178, 0.00, 0.00, -8533.94, -27528.01, 5397.30, 0.00, 0.00, 0.00, 0.000, 0.000, 0.000, 19:42:13.117, 1565912533117
179, 0.00, 0.00, -8581.10, -27530.13, 5398.46, 0.00, 0.00, 0.00, 0.000, 0.000, 0.000, 19:42:13.117, 1565912533117
180, 0.00, 0.00, -8755.98, -27545.66, 5380.94, 0.00, 0.00, 0.00, 0.000, 0.000, 0.000, 19:42:13.123, 1565912533123
181, 0.00, 0.00, -8703.57, -27535.05, 5388.65, 0.00, 0.00, 0.00, 0.000, 0.000, 0.000, 19:42:13.123, 1565912533123
182, 0.00, 0.00, -8536.49, -27515.42, 5409.10, 0.00, 0.00, 0.00, 0.000, 0.000, 0.000, 19:42:13.129, 1565912533129
183, 0.00, 0.00, -8557.95, -27521.97, 5405.12, 0.00, 0.00, 0.00, 0.000, 0.000, 0.000, 19:42:13.137, 1565912533137
184, 0.00, 0.00, -8728.74, -27537.75, 5390.28, 0.00, 0.00, 0.00, 0.000, 0.000, 0.000, 19:42:13.137, 1565912533137
185, 0.00, 0.00, -8734.61, -27535.56, 5388.04, 0.00, 0.00, 0.00, 0.008, 0.014, 0.960, 19:42:13.145, 1565912533145
186, 0.00, 0.00, -8553.32, -27519.94, 5402.51, 0.00, 0.00, 0.00, 0.000, 0.000, 0.000, 19:42:13.145, 1565912533145
187, 0.00, 0.00, -8541.99, -27517.88, 5407.09, 0.00, 0.00, 0.00, 0.000, 0.000, 0.000, 19:42:13.151, 1565912533151
188, 0.00, 0.00, -8692.62, -27529.06, 5392.45, 0.00, 0.00, 0.00, 0.000, 0.000, 0.000, 19:42:13.151, 1565912533151
189, 0.00, 0.00, -8747.80, -27532.74, 5385.63, 0.00, 0.00, 0.00, 0.000, 0.000, 0.000, 19:42:13.159, 1565912533159
190, 0.00, 0.00, -8564.79, -27514.97, 5407.20, 0.00, 0.00, 0.00, 0.000, 0.000, 0.000, 19:42:13.159, 1565912533159
191, 0.00, 0.00, -8514.20, -27512.67, 5412.56, 0.00, 0.00, 0.00, 0.000, 0.000, 0.000, 19:42:13.167, 1565912533167
192, 0.00, 0.00, -8651.94, -27527.33, 5396.52, 0.00, 0.00, 0.00, 0.000, 0.000, 0.000, 19:42:13.167, 1565912533167
193, 0.00, 0.00, -8758.11, -27537.95, 5382.08, 0.00, 0.00, 0.00, 0.000, 0.000, 0.000, 19:42:13.176, 1565912533176
194, 0.00, 0.00, -8588.37, -27518.77, 5400.09, 0.00, 0.00, 0.00, 0.008, 0.012, 0.962, 19:42:13.176, 1565912533176
195, 0.00, 0.00, -8508.84, -27515.40, 5405.70, 0.00, 0.00, 0.00, 0.000, 0.000, 0.000, 19:42:13.183, 1565912533183
196, 0.00, 0.00, -8613.11, -27524.23, 5396.90, 0.00, 0.00, 0.00, 0.000, 0.000, 0.000, 19:42:13.183, 1565912533183
197, 0.00, 0.00, -8758.78, -27538.33, 5378.37, 0.00, 0.00, 0.00, 0.000, 0.000, 0.000, 19:42:13.190, 1565912533190
198, 0.00, 0.00, -8621.16, -27521.99, 5392.87, 0.00, 0.00, 0.00, 0.000, 0.000, 0.000, 19:42:13.199, 1565912533199
199, 0.00, 0.00, -8508.06, -27511.62, 5407.18, 0.00, 0.00, 0.00, 0.000, 0.000, 0.000, 19:42:13.199, 1565912533199
200, 0.00, 0.00, -8582.76, -27518.68, 5400.99, 0.00, 0.00, 0.00, 0.000, 0.000, 0.000, 19:42:13.205, 1565912533205
201, 0.00, 0.00, -8750.57, -27533.62, 5384.04, 0.00, 0.00, 0.00, 0.000, 0.000, 0.000, 19:42:13.205, 1565912533205
202, 0.00, 0.00, -8661.97, -27528.14, 5386.70, 0.00, 0.00, 0.00, 0.000, 0.000, 0.000, 19:42:13.211, 1565912533211
203, 0.00, 0.00, -8513.26, -27515.00, 5402.89, 0.00, 0.00, 0.00, 0.000, 0.000, 0.000, 19:42:13.212, 1565912533212
204, 0.00, 0.00, -8558.35, -27516.99, 5404.72, 0.00, 0.00, 0.00, 0.006, 0.010, 0.964, 19:42:13.220, 1565912533220
205, 0.00, 0.00, -8729.63, -27529.53, 5391.40, 0.00, 0.00, 0.00, 0.000, 0.000, 0.000, 19:42:13.220, 1565912533220
206, 0.00, 0.00, -8685.98, -27522.04, 5396.36, 0.00, 0.00, 0.00, 0.000, 0.000, 0.000, 19:42:13.227, 1565912533227
207, 0.00, 0.00, -8518.88, -27508.54, 5413.26, 0.00, 0.00, 0.00, 0.000, 0.000, 0.000, 19:42:13.227, 1565912533227
208, 0.00, 0.00, -8531.48, -27509.83, 5415.34, 0.00, 0.00, 0.00, 0.000, 0.000, 0.000, 19:42:13.234, 1565912533234
209, 0.00, 0.00, -8700.77, -27522.55, 5399.69, 0.00, 0.00, 0.00, 0.000, 0.000, 0.000, 19:42:13.234, 1565912533234
210, 0.00, 0.00, -8719.24, -27526.48, 5390.30, 0.00, 0.00, 0.00, 0.000, 0.000, 0.000, 19:42:13.242, 1565912533242
211, 0.00, 0.00, -8541.29, -27511.46, 5406.02, 0.00, 0.00, 0.00, 0.000, 0.000, 0.000, 19:42:13.242, 1565912533242
212, 0.00, 0.00, -8516.08, -27502.12, 5419.02, 0.00, 0.00, 0.00, 0.000, 0.000, 0.000, 19:42:13.250, 1565912533250
213, 0.00, 0.00, -8661.79, -27511.58, 5409.73, 0.00, 0.00, 0.00, 0.000, 0.000, 0.000, 19:42:13.250, 1565912533250
214, 0.00, 0.00, -8730.23, -27516.54, 5400.38, 0.00, 0.00, 0.00, 0.008, 0.012, 0.966, 19:42:13.258, 1565912533258
215, 0.00, 0.00, -8556.18, -27505.77, 5408.74, 0.00, 0.00, 0.00, 0.000, 0.000, 0.000, 19:42:13.265, 1565912533265
216, 0.00, 0.00, -8511.48, -27506.70, 5412.99, 0.00, 0.00, 0.00, 0.000, 0.000, 0.000, 19:42:13.266, 1565912533266
217, 0.00, 0.00, -8640.76, -27517.86, 5403.04, 0.00, 0.00, 0.00, 0.000, 0.000, 0.000, 19:42:13.273, 1565912533273
218, 0.00, 0.00, -8747.82, -27523.24, 5394.77, 0.00, 0.00, 0.00, 0.000, 0.000, 0.000, 19:42:13.273, 1565912533273
219, 0.00, 0.00, -8592.39, -27511.60, 5405.68, 0.00, 0.00, 0.00, 0.000, 0.000, 0.000, 19:42:13.281, 1565912533281
220, 0.00, 0.00, -8511.92, -27504.09, 5416.86, 0.00, 0.00, 0.00, 0.000, 0.000, 0.000, 19:42:13.282, 1565912533282
221, 0.00, 0.00, -8616.58, -27519.71, 5403.04, 0.00, 0.00, 0.00, 0.000, 0.000, 0.000, 19:42:13.289, 1565912533289
222, 0.00, 0.00, -8762.60, -27535.94, 5384.96, 0.00, 0.00, 0.00, 0.000, 0.000, 0.000, 19:42:13.289, 1565912533289
223, 0.00, 0.00, -8631.71, -27521.39, 5397.81, 0.00, 0.00, 0.00, 0.000, 0.000, 0.000, 19:42:13.295, 1565912533295
224, 0.00, 0.00, -8515.66, -27512.20, 5411.22, 0.00, 0.00, 0.00, 0.004, 0.018, 0.970, 19:42:13.295, 1565912533295
225, 0.00, 0.00, -8589.08, -27520.41, 5405.46, 0.00, 0.00, 0.00, 0.000, 0.000, 0.000, 19:42:13.302, 1565912533302
226, 0.00, 0.00, -8754.49, -27533.66, 5390.23, 0.00, 0.00, 0.00, 0.000, 0.000, 0.000, 19:42:13.303, 1565912533303
227, 0.00, 0.00, -8663.29, -27526.26, 5393.83, 0.00, 0.00, 0.00, 0.000, 0.000, 0.000, 19:42:13.312, 1565912533312
228, 0.00, 0.00, -8518.54, -27515.55, 5407.74, 0.00, 0.00, 0.00, 0.000, 0.000, 0.000, 19:42:13.313, 1565912533313
229, 0.00, 0.00, -8562.71, -27523.47, 5402.04, 0.00, 0.00, 0.00, 0.000, 0.000, 0.000, 19:42:13.319, 1565912533319
230, 0.00, 0.00, -8739.73, -27540.52, 5383.46, 0.00, 0.00, 0.00, 0.000, 0.000, 0.000, 19:42:13.325, 1565912533325
231, 0.00, 0.00, -8711.84, -27541.86, 5380.15, 0.00, 0.00, 0.00, 0.000, 0.000, 0.000, 19:42:13.325, 1565912533325
232, 0.00, 0.00, -8542.86, -27527.87, 5397.12, 0.00, 0.00, 0.00, 0.000, 0.000, 0.000, 19:42:13.334, 1565912533334
233, 0.00, 0.00, -8558.01, -27531.25, 5397.50, 0.00, 0.00, 0.00, 0.000, 0.000, 0.000, 19:42:13.334, 1565912533334
234, 0.00, 0.00, -8730.19, -27550.13, 5375.84, 0.00, 0.00, 0.00, 0.006, 0.016, 0.970, 19:42:13.340, 1565912533340
235, 0.00, 0.00, -8744.83, -27543.38, 5378.25, 0.00, 0.00, 0.00, 0.000, 0.000, 0.000, 19:42:13.340, 1565912533340
236, 0.00, 0.00, -8558.82, -27521.19, 5403.04, 0.00, 0.00, 0.00, 0.000, 0.000, 0.000, 19:42:13.350, 1565912533350
237, 0.00, 0.00, -8537.65, -27519.00, 5409.61, 0.00, 0.00, 0.00, 0.000, 0.000, 0.000, 19:42:13.350, 1565912533350
238, 0.00, 0.00, -8687.54, -27531.89, 5397.70, 0.00, 0.00, 0.00, 0.000, 0.000, 0.000, 19:42:13.356, 1565912533356
239, 0.00, 0.00, -8761.06, -27538.11, 5389.41, 0.00, 0.00, 0.00, 0.000, 0.000, 0.000, 19:42:13.357, 1565912533357
240, 0.00, 0.00, -8585.62, -27524.70, 5401.08, 0.00, 0.00, 0.00, 0.000, 0.000, 0.000, 19:42:13.363, 1565912533363
241, 0.00, 0.00, -8534.97, -27522.93, 5403.20, 0.00, 0.00, 0.00, 0.000, 0.000, 0.000, 19:42:13.364, 1565912533364
242, 0.00, 0.00, -8660.88, -27533.48, 5393.39, 0.00, 0.00, 0.00, 0.000, 0.000, 0.000, 19:42:13.370, 1565912533370
243, 0.00, 0.00, -8771.52, -27535.02, 5389.03, 0.00, 0.00, 0.00, 0.000, 0.000, 0.000, 19:42:13.370, 1565912533370
244, 0.00, 0.00, -8617.07, -27523.63, 5398.64, 0.00, 0.00, 0.00, 0.008, 0.014, 0.962, 19:42:13.376, 1565912533376
245, 0.00, 0.00, -8533.31, -27523.71, 5401.99, 0.00, 0.00, 0.00, 0.000, 0.000, 0.000, 19:42:13.384, 1565912533384
246, 0.00, 0.00, -8625.25, -27529.95, 5396.09, 0.00, 0.00, 0.00, 0.000, 0.000, 0.000, 19:42:13.384, 1565912533384
247, 0.00, 0.00, -8772.23, -27541.17, 5380.49, 0.00, 0.00, 0.00, 0.000, 0.000, 0.000, 19:42:13.392, 1565912533392
248, 0.00, 0.00, -8644.65, -27524.18, 5393.88, 0.00, 0.00, 0.00, 0.000, 0.000, 0.000, 19:42:13.392, 1565912533392
249, 0.00, 0.00, -8518.25, -27507.38, 5416.12, 0.00, 0.00, 0.00, 0.000, 0.000, 0.000, 19:42:13.399, 1565912533399
250, 0.00, 0.00, -8579.96, -27510.35, 5416.83, 0.00, 0.00, 0.00, 0.000, 0.000, 0.000, 19:42:13.399, 1565912533399
251, 0.00, 0.00, -8748.27, -27523.94, 5403.56, 0.00, 0.00, 0.00, 0.000, 0.000, 0.000, 19:42:13.407, 1565912533407
252, 0.00, 0.00, -8664.68, -27511.29, 5414.87, 0.00, 0.00, 0.00, 0.000, 0.000, 0.000, 19:42:13.407, 1565912533407
253, 0.00, 0.00, -8523.21, -27504.51, 5423.47, 0.00, 0.00, 0.00, 0.006, 0.018, 0.966, 19:42:13.415, 1565912533415
254, 0.00, 0.00, -8570.08, -27515.02, 5417.19, 0.00, 0.00, 0.00, 0.000, 0.000, 0.000, 19:42:13.415, 1565912533415
255, 0.00, 0.00, -8747.04, -27536.14, 5394.86, 0.00, 0.00, 0.00, 0.000, 0.000, 0.000, 19:42:13.423, 1565912533423
0, 0.00, 0.00, -8716.51, -27529.50, 5397.21, 0.00, 0.00, 0.00, 0.000, 0.000, 0.000, 19:42:13.423, 1565912533423
1, 0.00, 0.00, -8547.71, -27512.89, 5415.56, 0.00, 0.00, 0.00, 0.000, 0.000, 0.000, 19:42:13.431, 1565912533431
2, 0.00, 0.00, -8559.64, -27518.60, 5413.19, 0.00, 0.00, 0.00, 0.000, 0.000, 0.000, 19:42:13.431, 1565912533431
3, 0.00, 0.00, -8716.49, -27531.83, 5399.42, 0.00, 0.00, 0.00, 0.000, 0.000, 0.000, 19:42:13.438, 1565912533438
4, 0.00, 0.00, -8733.07, -27524.41, 5401.34, 0.00, 0.00, 0.00, 0.000, 0.000, 0.000, 19:42:13.446, 1565912533446
5, 0.00, 0.00, -8548.38, -27505.21, 5419.47, 0.00, 0.00, 0.00, 0.000, 0.000, 0.000, 19:42:13.446, 1565912533446
6, 0.00, 0.00, -8525.16, -27505.63, 5422.11, 0.00, 0.00, 0.00, 0.000, 0.000, 0.000, 19:42:13.452, 1565912533452
7, 0.00, 0.00, -8670.89, -27519.18, 5410.35, 0.00, 0.00, 0.00, 0.004, 0.022, 0.968, 19:42:13.452, 1565912533452
8, 0.00, 0.00, -8746.10, -27518.01, 5407.20, 0.00, 0.00, 0.00, 0.000, 0.000, 0.000, 19:42:13.459, 1565912533459
9, 0.00, 0.00, -8568.21, -27501.96, 5422.29, 0.00, 0.00, 0.00, 0.000, 0.000, 0.000, 19:42:13.459, 1565912533459
10, 0.00, 0.00, -8511.83, -27496.49, 5433.55, 0.00, 0.00, 0.00, 0.000, 0.000, 0.000, 19:42:13.467, 1565912533467
11, 0.00, 0.00, -8626.68, -27503.69, 5428.52, 0.00, 0.00, 0.00, 0.000, 0.000, 0.000, 19:42:13.467, 1565912533467
12, 0.00, 0.00, -8753.26, -27514.93, 5413.21, 0.00, 0.00, 0.00, 0.000, 0.000, 0.000, 19:42:13.475, 1565912533475
13, 0.00, 0.00, -8598.83, -27501.92, 5423.25, 0.00, 0.00, 0.00, 0.000, 0.000, 0.000, 19:42:13.475, 1565912533475
14, 0.00, 0.00, -8509.60, -27499.60, 5428.19, 0.00, 0.00, 0.00, 0.000, 0.000, 0.000, 19:42:13.482, 1565912533482
15, 0.00, 0.00, -8603.16, -27508.51, 5420.07, 0.00, 0.00, 0.00, 0.000, 0.000, 0.000, 19:42:13.482, 1565912533482
16, 0.00, 0.00, -8754.89, -27523.06, 5402.33, 0.00, 0.00, 0.00, 0.000, 0.000, 0.000, 19:42:13.490, 1565912533490
17, 0.00, 0.00, -8633.99, -27511.06, 5409.93, 0.00, 0.00, 0.00, 0.002, 0.020, 0.962, 19:42:13.490, 1565912533490
18, 0.00, 0.00, -8510.96, -27501.41, 5420.25, 0.00, 0.00, 0.00, 0.000, 0.000, 0.000, 19:42:13.497, 1565912533497
19, 0.00, 0.00, -8580.52, -27513.90, 5412.12, 0.00, 0.00, 0.00, 0.000, 0.000, 0.000, 19:42:13.497, 1565912533497
20, 0.00, 0.00, -8745.70, -27524.23, 5400.49, 0.00, 0.00, 0.00, 0.000, 0.000, 0.000, 19:42:13.505, 1565912533505
21, 0.00, 0.00, -8669.26, -27511.46, 5412.39, 0.00, 0.00, 0.00, 0.000, 0.000, 0.000, 19:42:13.513, 1565912533513
22, 0.00, 0.00, -8517.56, -27499.80, 5430.04, 0.00, 0.00, 0.00, 0.000, 0.000, 0.000, 19:42:13.513, 1565912533513
23, 0.00, 0.00, -8553.23, -27505.52, 5427.54, 0.00, 0.00, 0.00, 0.000, 0.000, 0.000, 19:42:13.521, 1565912533521
24, 0.00, 0.00, -8717.92, -27513.03, 5416.14, 0.00, 0.00, 0.00, 0.000, 0.000, 0.000, 19:42:13.521, 1565912533521
25, 0.00, 0.00, -8696.59, -27508.27, 5415.56, 0.00, 0.00, 0.00, 0.000, 0.000, 0.000, 19:42:13.529, 1565912533529
26, 0.00, 0.00, -8528.29, -27499.04, 5425.01, 0.00, 0.00, 0.00, 0.000, 0.000, 0.000, 19:42:13.529, 1565912533529
27, 0.00, 0.00, -8530.92, -27503.96, 5421.55, 0.00, 0.00, 0.00, 0.008, 0.016, 0.968, 19:42:13.544, 1565912533544
28, 0.00, 0.00, -8696.57, -27525.08, 5399.42, 0.00, 0.00, 0.00, 0.000, 0.000, 0.000, 19:42:13.551, 1565912533551
29, 0.00, 0.00, -8741.90, -27540.61, 5379.15, 0.00, 0.00, 0.00, 0.000, 0.000, 0.000, 19:42:13.558, 1565912533558
30, 0.00, 0.00, -8565.61, -27529.66, 5388.25, 0.00, 0.00, 0.00, 0.000, 0.000, 0.000, 19:42:13.558, 1565912533558
31, 0.00, 0.00, -8540.02, -27527.74, 5392.76, 0.00, 0.00, 0.00, 0.000, 0.000, 0.000, 19:42:13.564, 1565912533564
32, 0.00, 0.00, -8677.44, -27535.74, 5384.96, 0.00, 0.00, 0.00, 0.000, 0.000, 0.000, 19:42:13.564, 1565912533564
