%OpenBCI Raw EEG Data
%Number of channels = 8
%Sample Rate = 250.0 Hz
%First Column = SampleIndex
%Last Column = Timestamp 
%Other Columns = EEG data in microvolts followed by Accel Data (in G) interleaved with Aux Data
0, 0.00, 0.00, 0.00, 0.00, 0.00, 0.00, 0.00, 0.00, 0.000, 0.000, 0.000, 18:58:15.695, 1565909895695
1, 0.00, 0.00, -7743.56, -52321.43, -5386.03, 0.00, 0.00, 0.00, 0.254, 0.130, 0.934, 18:58:15.701, 1565909895701
2, 0.00, 0.00, -7759.68, -52330.17, -5398.28, 0.00, 0.00, 0.00, 0.000, 0.000, 0.000, 18:58:15.710, 1565909895710
3, 0.00, 0.00, -7782.85, -52352.72, -5411.00, 0.00, 0.00, 0.00, 0.000, 0.000, 0.000, 18:58:15.710, 1565909895710
4, 0.00, 0.00, -7771.08, -52347.40, -5404.43, 0.00, 0.00, 0.00, 0.000, 0.000, 0.000, 18:58:15.716, 1565909895716
5, 0.00, 0.00, -7747.78, -52327.60, -5392.09, 0.00, 0.00, 0.00, 0.000, 0.000, 0.000, 18:58:15.716, 1565909895716
6, 0.00, 0.00, -7766.63, -52337.93, -5405.32, 0.00, 0.00, 0.00, 0.000, 0.000, 0.000, 18:58:15.724, 1565909895724
7, 0.00, 0.00, -7801.52, -52366.40, -5421.08, 0.00, 0.00, 0.00, 0.000, 0.000, 0.000, 18:58:15.725, 1565909895725
8, 0.00, 0.00, -7796.13, -52365.57, -5417.53, 0.00, 0.00, 0.00, 0.268, 0.130, 0.944, 18:58:15.732, 1565909895732
9, 0.00, 0.00, -7760.84, -52338.38, -5398.33, 0.00, 0.00, 0.00, 0.000, 0.000, 0.000, 18:58:15.733, 1565909895733
10, 0.00, 0.00, -7757.37, -52327.85, -5397.25, 0.00, 0.00, 0.00, 0.000, 0.000, 0.000, 18:58:15.740, 1565909895740
11, 0.00, 0.00, -7788.11, -52351.63, -5410.62, 0.00, 0.00, 0.00, 0.000, 0.000, 0.000, 18:58:15.740, 1565909895740
12, 0.00, 0.00, -7786.95, -52351.98, -5406.71, 0.00, 0.00, 0.00, 0.000, 0.000, 0.000, 18:58:15.747, 1565909895747
13, 0.00, 0.00, -7748.77, -52324.18, -5386.37, 0.00, 0.00, 0.00, 0.000, 0.000, 0.000, 18:58:15.747, 1565909895747
14, 0.00, 0.00, -7733.41, -52308.69, -5382.28, 0.00, 0.00, 0.00, 0.000, 0.000, 0.000, 18:58:15.756, 1565909895756
15, 0.00, 0.00, -7763.63, -52332.63, -5400.52, 0.00, 0.00, 0.00, 0.000, 0.000, 0.000, 18:58:15.756, 1565909895756
16, 0.00, 0.00, -7772.93, -52343.78, -5402.28, 0.00, 0.00, 0.00, 0.000, 0.000, 0.000, 18:58:15.762, 1565909895762
17, 0.00, 0.00, -7753.19, -52326.95, -5384.47, 0.00, 0.00, 0.00, 0.258, 0.134, 0.938, 18:58:15.769, 1565909895769
18, 0.00, 0.00, -7755.79, -52323.18, -5387.87, 0.00, 0.00, 0.00, 0.000, 0.000, 0.000, 18:58:15.769, 1565909895769
19, 0.00, 0.00, -7799.40, -52356.68, -5414.87, 0.00, 0.00, 0.00, 0.000, 0.000, 0.000, 18:58:15.777, 1565909895777
20, 0.00, 0.00, -7808.47, -52369.60, -5419.49, 0.00, 0.00, 0.00, 0.000, 0.000, 0.000, 18:58:15.777, 1565909895777
21, 0.00, 0.00, -7779.06, -52350.27, -5404.74, 0.00, 0.00, 0.00, 0.000, 0.000, 0.000, 18:58:15.784, 1565909895784
22, 0.00, 0.00, -7743.40, -52319.98, -5386.70, 0.00, 0.00, 0.00, 0.000, 0.000, 0.000, 18:58:15.785, 1565909895785
23, 0.00, 0.00, -7771.68, -52338.08, -5401.16, 0.00, 0.00, 0.00, 0.000, 0.000, 0.000, 18:58:15.793, 1565909895793
24, 0.00, 0.00, -7800.92, -52362.80, -5415.54, 0.00, 0.00, 0.00, 0.000, 0.000, 0.000, 18:58:15.793, 1565909895793
25, 0.00, 0.00, -7782.03, -52349.62, -5402.13, 0.00, 0.00, 0.00, 0.000, 0.000, 0.000, 18:58:15.799, 1565909895799
26, 0.00, 0.00, -7744.75, -52320.83, -5385.34, 0.00, 0.00, 0.00, 0.000, 0.000, 0.000, 18:58:15.799, 1565909895799
27, 0.00, 0.00, -7757.89, -52326.19, -5394.46, 0.00, 0.00, 0.00, 0.256, 0.136, 0.938, 18:58:15.807, 1565909895807
28, 0.00, 0.00, -7784.35, -52348.88, -5409.05, 0.00, 0.00, 0.00, 0.000, 0.000, 0.000, 18:58:15.807, 1565909895807
29, 0.00, 0.00, -7772.15, -52342.22, -5400.16, 0.00, 0.00, 0.00, 0.000, 0.000, 0.000, 18:58:15.815, 1565909895815
30, 0.00, 0.00, -7737.03, -52314.37, -5381.43, 0.00, 0.00, 0.00, 0.000, 0.000, 0.000, 18:58:15.816, 1565909895816
31, 0.00, 0.00, -7740.95, -52313.12, -5386.23, 0.00, 0.00, 0.00, 0.000, 0.000, 0.000, 18:58:15.821, 1565909895821
32, 0.00, 0.00, -7775.64, -52339.07, -5398.19, 0.00, 0.00, 0.00, 0.000, 0.000, 0.000, 18:58:15.829, 1565909895829
33, 0.00, 0.00, -7783.97, -52348.30, -5400.11, 0.00, 0.00, 0.00, 0.000, 0.000, 0.000, 18:58:15.829, 1565909895829
34, 0.00, 0.00, -7754.65, -52330.66, -5390.79, 0.00, 0.00, 0.00, 0.000, 0.000, 0.000, 18:58:15.837, 1565909895837
35, 0.00, 0.00, -7747.43, -52321.90, -5392.47, 0.00, 0.00, 0.00, 0.000, 0.000, 0.000, 18:58:15.837, 1565909895837
36, 0.00, 0.00, -7784.69, -52348.50, -5407.80, 0.00, 0.00, 0.00, 0.000, 0.000, 0.000, 18:58:15.845, 1565909895845
37, 0.00, 0.00, -7787.84, -52354.67, -5407.20, 0.00, 0.00, 0.00, 0.258, 0.134, 0.938, 18:58:15.845, 1565909895845
38, 0.00, 0.00, -7760.99, -52335.29, -5393.39, 0.00, 0.00, 0.00, 0.000, 0.000, 0.000, 18:58:15.851, 1565909895851
39, 0.00, 0.00, -7750.40, -52324.83, -5393.90, 0.00, 0.00, 0.00, 0.000, 0.000, 0.000, 18:58:15.852, 1565909895852
40, 0.00, 0.00, -7778.79, -52345.93, -5407.69, 0.00, 0.00, 0.00, 0.000, 0.000, 0.000, 18:58:15.859, 1565909895859
41, 0.00, 0.00, -7790.75, -52356.77, -5408.63, 0.00, 0.00, 0.00, 0.000, 0.000, 0.000, 18:58:15.859, 1565909895859
42, 0.00, 0.00, -7771.10, -52343.63, -5397.52, 0.00, 0.00, 0.00, 0.000, 0.000, 0.000, 18:58:15.868, 1565909895868
43, 0.00, 0.00, -7751.61, -52325.30, -5389.27, 0.00, 0.00, 0.00, 0.000, 0.000, 0.000, 18:58:15.868, 1565909895868
44, 0.00, 0.00, -7788.64, -52353.24, -5412.27, 0.00, 0.00, 0.00, 0.000, 0.000, 0.000, 18:58:15.874, 1565909895874
45, 0.00, 0.00, -7802.19, -52369.11, -5419.94, 0.00, 0.00, 0.00, 0.000, 0.000, 0.000, 18:58:15.875, 1565909895875
46, 0.00, 0.00, -7779.50, -52356.37, -5409.99, 0.00, 0.00, 0.00, 0.000, 0.000, 0.000, 18:58:15.881, 1565909895881
47, 0.00, 0.00, -7750.33, -52325.92, -5390.95, 0.00, 0.00, 0.00, 0.254, 0.134, 0.940, 18:58:15.889, 1565909895889
48, 0.00, 0.00, -7776.91, -52340.23, -5404.74, 0.00, 0.00, 0.00, 0.000, 0.000, 0.000, 18:58:15.889, 1565909895889
49, 0.00, 0.00, -7802.12, -52364.37, -5415.25, 0.00, 0.00, 0.00, 0.000, 0.000, 0.000, 18:58:15.897, 1565909895897
50, 0.00, 0.00, -7787.59, -52354.04, -5405.59, 0.00, 0.00, 0.00, 0.000, 0.000, 0.000, 18:58:15.897, 1565909895897
51, 0.00, 0.00, -7757.19, -52329.79, -5392.60, 0.00, 0.00, 0.00, 0.000, 0.000, 0.000, 18:58:15.904, 1565909895904
52, 0.00, 0.00, -7769.02, -52335.82, -5400.65, 0.00, 0.00, 0.00, 0.000, 0.000, 0.000, 18:58:15.904, 1565909895904
53, 0.00, 0.00, -7791.39, -52353.80, -5405.50, 0.00, 0.00, 0.00, 0.000, 0.000, 0.000, 18:58:15.912, 1565909895912
54, 0.00, 0.00, -7783.82, -52351.56, -5400.38, 0.00, 0.00, 0.00, 0.000, 0.000, 0.000, 18:58:15.912, 1565909895912
55, 0.00, 0.00, -7758.49, -52333.59, -5392.51, 0.00, 0.00, 0.00, 0.000, 0.000, 0.000, 18:58:15.920, 1565909895920
56, 0.00, 0.00, -7771.95, -52335.63, -5398.59, 0.00, 0.00, 0.00, 0.000, 0.000, 0.000, 18:58:15.920, 1565909895920
57, 0.00, 0.00, -7804.16, -52360.95, -5412.07, 0.00, 0.00, 0.00, 0.256, 0.142, 0.938, 18:58:15.928, 1565909895928
58, 0.00, 0.00, -7802.21, -52365.82, -5415.18, 0.00, 0.00, 0.00, 0.000, 0.000, 0.000, 18:58:15.928, 1565909895928
59, 0.00, 0.00, -7759.68, -52337.52, -5399.58, 0.00, 0.00, 0.00, 0.000, 0.000, 0.000, 18:58:15.934, 1565909895934
60, 0.00, 0.00, -7752.08, -52329.75, -5403.98, 0.00, 0.00, 0.00, 0.000, 0.000, 0.000, 18:58:15.934, 1565909895934
61, 0.00, 0.00, -7792.69, -52358.80, -5422.89, 0.00, 0.00, 0.00, 0.000, 0.000, 0.000, 18:58:15.941, 1565909895941
62, 0.00, 0.00, -7811.93, -52374.56, -5428.23, 0.00, 0.00, 0.00, 0.000, 0.000, 0.000, 18:58:15.941, 1565909895941
63, 0.00, 0.00, -7784.91, -52355.05, -5412.12, 0.00, 0.00, 0.00, 0.000, 0.000, 0.000, 18:58:15.949, 1565909895949
64, 0.00, 0.00, -7764.17, -52336.25, -5406.24, 0.00, 0.00, 0.00, 0.000, 0.000, 0.000, 18:58:15.958, 1565909895958
65, 0.00, 0.00, -7786.43, -52347.85, -5411.25, 0.00, 0.00, 0.00, 0.000, 0.000, 0.000, 18:58:15.958, 1565909895958
66, 0.00, 0.00, -7794.21, -52354.11, -5408.41, 0.00, 0.00, 0.00, 0.000, 0.000, 0.000, 18:58:15.964, 1565909895964
67, 0.00, 0.00, -7769.02, -52337.64, -5395.02, 0.00, 0.00, 0.00, 0.252, 0.136, 0.936, 18:58:15.964, 1565909895964
68, 0.00, 0.00, -7742.98, -52315.13, -5385.56, 0.00, 0.00, 0.00, 0.000, 0.000, 0.000, 18:58:15.972, 1565909895972
69, 0.00, 0.00, -7778.00, -52338.87, -5403.80, 0.00, 0.00, 0.00, 0.000, 0.000, 0.000, 18:58:15.972, 1565909895972
70, 0.00, 0.00, -7797.00, -52358.04, -5412.01, 0.00, 0.00, 0.00, 0.000, 0.000, 0.000, 18:58:15.980, 1565909895980
71, 0.00, 0.00, -7769.49, -52339.00, -5393.50, 0.00, 0.00, 0.00, 0.000, 0.000, 0.000, 18:58:15.980, 1565909895980
72, 0.00, 0.00, -7736.92, -52313.00, -5380.58, 0.00, 0.00, 0.00, 0.000, 0.000, 0.000, 18:58:15.987, 1565909895987
73, 0.00, 0.00, -7758.16, -52328.96, -5396.74, 0.00, 0.00, 0.00, 0.000, 0.000, 0.000, 18:58:15.987, 1565909895987
74, 0.00, 0.00, -7779.32, -52346.82, -5404.56, 0.00, 0.00, 0.00, 0.000, 0.000, 0.000, 18:58:15.995, 1565909895995
75, 0.00, 0.00, -7776.33, -52346.60, -5399.82, 0.00, 0.00, 0.00, 0.000, 0.000, 0.000, 18:58:15.995, 1565909895995
76, 0.00, 0.00, -7749.89, -52321.21, -5384.78, 0.00, 0.00, 0.00, 0.000, 0.000, 0.000, 18:58:16.003, 1565909896003
77, 0.00, 0.00, -7771.10, -52334.86, -5402.77, 0.00, 0.00, 0.00, 0.252, 0.130, 0.936, 18:58:16.003, 1565909896003
78, 0.00, 0.00, -7803.17, -52363.30, -5419.18, 0.00, 0.00, 0.00, 0.000, 0.000, 0.000, 18:58:16.010, 1565909896010
79, 0.00, 0.00, -7789.72, -52356.41, -5409.50, 0.00, 0.00, 0.00, 0.000, 0.000, 0.000, 18:58:16.016, 1565909896016
80, 0.00, 0.00, -7751.52, -52325.23, -5386.52, 0.00, 0.00, 0.00, 0.000, 0.000, 0.000, 18:58:16.016, 1565909896016
81, 0.00, 0.00, -7765.98, -52331.45, -5396.96, 0.00, 0.00, 0.00, 0.000, 0.000, 0.000, 18:58:16.024, 1565909896024
82, 0.00, 0.00, -7802.86, -52362.20, -5415.02, 0.00, 0.00, 0.00, 0.000, 0.000, 0.000, 18:58:16.025, 1565909896025
83, 0.00, 0.00, -7799.06, -52364.59, -5412.16, 0.00, 0.00, 0.00, 0.000, 0.000, 0.000, 18:58:16.032, 1565909896032
84, 0.00, 0.00, -7753.64, -52329.28, -5386.99, 0.00, 0.00, 0.00, 0.000, 0.000, 0.000, 18:58:16.033, 1565909896033
85, 0.00, 0.00, -7751.20, -52321.05, -5390.17, 0.00, 0.00, 0.00, 0.000, 0.000, 0.000, 18:58:16.039, 1565909896039
86, 0.00, 0.00, -7791.62, -52352.81, -5411.13, 0.00, 0.00, 0.00, 0.258, 0.134, 0.936, 18:58:16.039, 1565909896039
87, 0.00, 0.00, -7800.31, -52363.59, -5413.21, 0.00, 0.00, 0.00, 0.000, 0.000, 0.000, 18:58:16.047, 1565909896047
88, 0.00, 0.00, -7769.20, -52340.68, -5397.05, 0.00, 0.00, 0.00, 0.000, 0.000, 0.000, 18:58:16.047, 1565909896047
89, 0.00, 0.00, -7742.29, -52314.75, -5384.98, 0.00, 0.00, 0.00, 0.000, 0.000, 0.000, 18:58:16.055, 1565909896055
90, 0.00, 0.00, -7769.67, -52336.81, -5402.19, 0.00, 0.00, 0.00, 0.000, 0.000, 0.000, 18:58:16.055, 1565909896055
91, 0.00, 0.00, -7778.27, -52347.76, -5405.14, 0.00, 0.00, 0.00, 0.000, 0.000, 0.000, 18:58:16.063, 1565909896063
92, 0.00, 0.00, -7754.92, -52328.11, -5386.30, 0.00, 0.00, 0.00, 0.000, 0.000, 0.000, 18:58:16.063, 1565909896063
93, 0.00, 0.00, -7741.33, -52311.75, -5379.10, 0.00, 0.00, 0.00, 0.000, 0.000, 0.000, 18:58:16.069, 1565909896069
94, 0.00, 0.00, -7778.16, -52339.13, -5403.49, 0.00, 0.00, 0.00, 0.000, 0.000, 0.000, 18:58:16.077, 1565909896077
95, 0.00, 0.00, -7799.19, -52357.93, -5409.93, 0.00, 0.00, 0.00, 0.000, 0.000, 0.000, 18:58:16.077, 1565909896077
96, 0.00, 0.00, -7784.13, -52350.36, -5403.87, 0.00, 0.00, 0.00, 0.254, 0.132, 0.942, 18:58:16.085, 1565909896085
97, 0.00, 0.00, -7748.68, -52320.61, -5389.18, 0.00, 0.00, 0.00, 0.000, 0.000, 0.000, 18:58:16.085, 1565909896085
98, 0.00, 0.00, -7774.74, -52337.79, -5404.00, 0.00, 0.00, 0.00, 0.000, 0.000, 0.000, 18:58:16.092, 1565909896092
99, 0.00, 0.00, -7806.48, -52366.52, -5418.55, 0.00, 0.00, 0.00, 0.000, 0.000, 0.000, 18:58:16.093, 1565909896093
100, 0.00, 0.00, -7787.33, -52352.84, -5402.84, 0.00, 0.00, 0.00, 0.000, 0.000, 0.000, 18:58:16.099, 1565909896099
101, 0.00, 0.00, -7748.14, -52317.36, -5376.80, 0.00, 0.00, 0.00, 0.000, 0.000, 0.000, 18:58:16.099, 1565909896099
102, 0.00, 0.00, -7769.76, -52329.95, -5394.41, 0.00, 0.00, 0.00, 0.000, 0.000, 0.000, 18:58:16.107, 1565909896107
103, 0.00, 0.00, -7800.24, -52356.68, -5411.71, 0.00, 0.00, 0.00, 0.000, 0.000, 0.000, 18:58:16.107, 1565909896107
104, 0.00, 0.00, -7792.62, -52354.36, -5407.04, 0.00, 0.00, 0.00, 0.000, 0.000, 0.000, 18:58:16.116, 1565909896116
105, 0.00, 0.00, -7755.16, -52324.76, -5386.39, 0.00, 0.00, 0.00, 0.000, 0.000, 0.000, 18:58:16.116, 1565909896116
106, 0.00, 0.00, -7757.93, -52322.48, -5392.18, 0.00, 0.00, 0.00, 0.256, 0.136, 0.938, 18:58:16.122, 1565909896122
107, 0.00, 0.00, -7786.92, -52348.32, -5407.09, 0.00, 0.00, 0.00, 0.000, 0.000, 0.000, 18:58:16.122, 1565909896122
108, 0.00, 0.00, -7781.76, -52349.37, -5404.88, 0.00, 0.00, 0.00, 0.000, 0.000, 0.000, 18:58:16.129, 1565909896129
109, 0.00, 0.00, -7743.31, -52319.04, -5380.98, 0.00, 0.00, 0.00, 0.000, 0.000, 0.000, 18:58:16.137, 1565909896137
110, 0.00, 0.00, -7747.29, -52315.39, -5384.36, 0.00, 0.00, 0.00, 0.000, 0.000, 0.000, 18:58:16.137, 1565909896137
111, 0.00, 0.00, -7798.90, -52355.52, -5411.94, 0.00, 0.00, 0.00, 0.000, 0.000, 0.000, 18:58:16.147, 1565909896147
112, 0.00, 0.00, -7816.78, -52372.50, -5419.27, 0.00, 0.00, 0.00, 0.000, 0.000, 0.000, 18:58:16.147, 1565909896147
113, 0.00, 0.00, -7787.06, -52352.43, -5402.15, 0.00, 0.00, 0.00, 0.000, 0.000, 0.000, 18:58:16.152, 1565909896152
114, 0.00, 0.00, -7763.81, -52334.28, -5396.52, 0.00, 0.00, 0.00, 0.000, 0.000, 0.000, 18:58:16.152, 1565909896152
115, 0.00, 0.00, -7799.13, -52357.46, -5413.93, 0.00, 0.00, 0.00, 0.000, 0.000, 0.000, 18:58:16.159, 1565909896159
116, 0.00, 0.00, -7818.89, -52375.84, -5420.54, 0.00, 0.00, 0.00, 0.254, 0.134, 0.942, 18:58:16.159, 1565909896159
117, 0.00, 0.00, -7793.25, -52360.95, -5407.83, 0.00, 0.00, 0.00, 0.000, 0.000, 0.000, 18:58:16.167, 1565909896167
118, 0.00, 0.00, -7763.74, -52334.86, -5395.38, 0.00, 0.00, 0.00, 0.000, 0.000, 0.000, 18:58:16.167, 1565909896167
119, 0.00, 0.00, -7800.62, -52360.17, -5416.34, 0.00, 0.00, 0.00, 0.000, 0.000, 0.000, 18:58:16.174, 1565909896174
120, 0.00, 0.00, -7826.22, -52385.02, -5428.84, 0.00, 0.00, 0.00, 0.000, 0.000, 0.000, 18:58:16.174, 1565909896174
121, 0.00, 0.00, -7802.66, -52369.84, -5418.22, 0.00, 0.00, 0.00, 0.000, 0.000, 0.000, 18:58:16.182, 1565909896182
122, 0.00, 0.00, -7760.82, -52336.94, -5401.68, 0.00, 0.00, 0.00, 0.000, 0.000, 0.000, 18:58:16.182, 1565909896182
123, 0.00, 0.00, -7777.29, -52344.88, -5412.90, 0.00, 0.00, 0.00, 0.000, 0.000, 0.000, 18:58:16.191, 1565909896191
124, 0.00, 0.00, -7809.39, -52370.34, -5422.62, 0.00, 0.00, 0.00, 0.000, 0.000, 0.000, 18:58:16.191, 1565909896191
125, 0.00, 0.00, -7809.52, -52373.53, -5422.06, 0.00, 0.00, 0.00, 0.000, 0.000, 0.000, 18:58:16.197, 1565909896197
126, 0.00, 0.00, -7776.13, -52350.49, -5410.66, 0.00, 0.00, 0.00, 0.260, 0.132, 0.938, 18:58:16.205, 1565909896205
127, 0.00, 0.00, -7786.81, -52355.81, -5421.91, 0.00, 0.00, 0.00, 0.000, 0.000, 0.000, 18:58:16.205, 1565909896205
128, 0.00, 0.00, -7819.78, -52382.92, -5436.55, 0.00, 0.00, 0.00, 0.000, 0.000, 0.000, 18:58:16.212, 1565909896212
129, 0.00, 0.00, -7813.86, -52381.63, -5430.85, 0.00, 0.00, 0.00, 0.000, 0.000, 0.000, 18:58:16.212, 1565909896212
130, 0.00, 0.00, -7777.96, -52353.80, -5412.90, 0.00, 0.00, 0.00, 0.000, 0.000, 0.000, 18:58:16.220, 1565909896220
131, 0.00, 0.00, -7777.00, -52348.39, -5416.45, 0.00, 0.00, 0.00, 0.000, 0.000, 0.000, 18:58:16.220, 1565909896220
132, 0.00, 0.00, -7808.02, -52372.59, -5430.27, 0.00, 0.00, 0.00, 0.000, 0.000, 0.000, 18:58:16.228, 1565909896228
133, 0.00, 0.00, -7805.81, -52373.78, -5426.56, 0.00, 0.00, 0.00, 0.000, 0.000, 0.000, 18:58:16.228, 1565909896228
134, 0.00, 0.00, -7771.34, -52347.34, -5407.58, 0.00, 0.00, 0.00, 0.000, 0.000, 0.000, 18:58:16.234, 1565909896234
135, 0.00, 0.00, -7760.99, -52335.42, -5405.68, 0.00, 0.00, 0.00, 0.000, 0.000, 0.000, 18:58:16.234, 1565909896234
136, 0.00, 0.00, -7795.86, -52361.55, -5423.83, 0.00, 0.00, 0.00, 0.258, 0.134, 0.934, 18:58:16.242, 1565909896242
137, 0.00, 0.00, -7807.29, -52370.40, -5424.19, 0.00, 0.00, 0.00, 0.000, 0.000, 0.000, 18:58:16.242, 1565909896242
138, 0.00, 0.00, -7780.46, -52351.27, -5409.55, 0.00, 0.00, 0.00, 0.000, 0.000, 0.000, 18:58:16.250, 1565909896250
139, 0.00, 0.00, -7756.61, -52330.39, -5401.90, 0.00, 0.00, 0.00, 0.000, 0.000, 0.000, 18:58:16.250, 1565909896250
140, 0.00, 0.00, -7781.40, -52351.98, -5420.41, 0.00, 0.00, 0.00, 0.000, 0.000, 0.000, 18:58:16.258, 1565909896258
141, 0.00, 0.00, -7798.23, -52366.80, -5425.73, 0.00, 0.00, 0.00, 0.000, 0.000, 0.000, 18:58:16.264, 1565909896264
142, 0.00, 0.00, -7785.81, -52353.46, -5409.37, 0.00, 0.00, 0.00, 0.000, 0.000, 0.000, 18:58:16.264, 1565909896264
143, 0.00, 0.00, -7768.39, -52336.09, -5403.40, 0.00, 0.00, 0.00, 0.000, 0.000, 0.000, 18:58:16.272, 1565909896272
144, 0.00, 0.00, -7795.26, -52353.93, -5419.34, 0.00, 0.00, 0.00, 0.000, 0.000, 0.000, 18:58:16.272, 1565909896272
145, 0.00, 0.00, -7815.44, -52372.19, -5425.66, 0.00, 0.00, 0.00, 0.254, 0.136, 0.934, 18:58:16.280, 1565909896280
146, 0.00, 0.00, -7798.55, -52363.03, -5417.01, 0.00, 0.00, 0.00, 0.000, 0.000, 0.000, 18:58:16.280, 1565909896280
147, 0.00, 0.00, -7765.69, -52337.52, -5403.74, 0.00, 0.00, 0.00, 0.000, 0.000, 0.000, 18:58:16.287, 1565909896287
148, 0.00, 0.00, -7780.17, -52346.49, -5415.56, 0.00, 0.00, 0.00, 0.000, 0.000, 0.000, 18:58:16.287, 1565909896287
149, 0.00, 0.00, -7804.33, -52366.22, -5424.14, 0.00, 0.00, 0.00, 0.000, 0.000, 0.000, 18:58:16.296, 1565909896296
150, 0.00, 0.00, -7795.89, -52363.45, -5419.72, 0.00, 0.00, 0.00, 0.000, 0.000, 0.000, 18:58:16.296, 1565909896296
151, 0.00, 0.00, -7755.21, -52331.64, -5398.86, 0.00, 0.00, 0.00, 0.000, 0.000, 0.000, 18:58:16.302, 1565909896302
152, 0.00, 0.00, -7761.55, -52331.33, -5403.38, 0.00, 0.00, 0.00, 0.000, 0.000, 0.000, 18:58:16.303, 1565909896303
153, 0.00, 0.00, -7791.64, -52356.81, -5416.63, 0.00, 0.00, 0.00, 0.000, 0.000, 0.000, 18:58:16.310, 1565909896310
154, 0.00, 0.00, -7785.87, -52358.04, -5411.89, 0.00, 0.00, 0.00, 0.000, 0.000, 0.000, 18:58:16.311, 1565909896311
155, 0.00, 0.00, -7753.08, -52332.41, -5395.13, 0.00, 0.00, 0.00, 0.252, 0.138, 0.934, 18:58:16.317, 1565909896317
156, 0.00, 0.00, -7761.38, -52331.55, -5401.99, 0.00, 0.00, 0.00, 0.000, 0.000, 0.000, 18:58:16.324, 1565909896324
157, 0.00, 0.00, -7806.75, -52367.39, -5424.57, 0.00, 0.00, 0.00, 0.000, 0.000, 0.000, 18:58:16.324, 1565909896324
158, 0.00, 0.00, -7819.11, -52380.68, -5429.08, 0.00, 0.00, 0.00, 0.000, 0.000, 0.000, 18:58:16.332, 1565909896332
159, 0.00, 0.00, -7787.95, -52356.77, -5413.79, 0.00, 0.00, 0.00, 0.000, 0.000, 0.000, 18:58:16.332, 1565909896332
160, 0.00, 0.00, -7777.09, -52344.54, -5413.82, 0.00, 0.00, 0.00, 0.000, 0.000, 0.000, 18:58:16.340, 1565909896340
161, 0.00, 0.00, -7808.07, -52367.34, -5425.86, 0.00, 0.00, 0.00, 0.000, 0.000, 0.000, 18:58:16.340, 1565909896340
162, 0.00, 0.00, -7811.85, -52377.27, -5428.81, 0.00, 0.00, 0.00, 0.000, 0.000, 0.000, 18:58:16.347, 1565909896347
163, 0.00, 0.00, -7780.26, -52356.28, -5412.39, 0.00, 0.00, 0.00, 0.000, 0.000, 0.000, 18:58:16.347, 1565909896347
164, 0.00, 0.00, -7767.59, -52336.74, -5403.80, 0.00, 0.00, 0.00, 0.000, 0.000, 0.000, 18:58:16.355, 1565909896355
165, 0.00, 0.00, -7799.06, -52357.82, -5418.91, 0.00, 0.00, 0.00, 0.248, 0.134, 0.942, 18:58:16.355, 1565909896355
166, 0.00, 0.00, -7809.63, -52370.56, -5421.44, 0.00, 0.00, 0.00, 0.000, 0.000, 0.000, 18:58:16.363, 1565909896363
167, 0.00, 0.00, -7787.88, -52355.47, -5409.81, 0.00, 0.00, 0.00, 0.000, 0.000, 0.000, 18:58:16.363, 1565909896363
168, 0.00, 0.00, -7758.11, -52329.68, -5396.16, 0.00, 0.00, 0.00, 0.000, 0.000, 0.000, 18:58:16.369, 1565909896369
169, 0.00, 0.00, -7784.71, -52350.24, -5413.46, 0.00, 0.00, 0.00, 0.000, 0.000, 0.000, 18:58:16.369, 1565909896369
170, 0.00, 0.00, -7804.20, -52371.05, -5424.52, 0.00, 0.00, 0.00, 0.000, 0.000, 0.000, 18:58:16.376, 1565909896376
171, 0.00, 0.00, -7790.61, -52360.86, -5414.49, 0.00, 0.00, 0.00, 0.000, 0.000, 0.000, 18:58:16.384, 1565909896384
172, 0.00, 0.00, -7762.63, -52333.37, -5397.52, 0.00, 0.00, 0.00, 0.000, 0.000, 0.000, 18:58:16.384, 1565909896384
173, 0.00, 0.00, -7787.37, -52347.47, -5414.96, 0.00, 0.00, 0.00, 0.000, 0.000, 0.000, 18:58:16.392, 1565909896392
174, 0.00, 0.00, -7813.75, -52371.75, -5429.13, 0.00, 0.00, 0.00, 0.000, 0.000, 0.000, 18:58:16.393, 1565909896393
175, 0.00, 0.00, -7799.89, -52367.48, -5422.44, 0.00, 0.00, 0.00, 0.252, 0.132, 0.940, 18:58:16.399, 1565909896399
176, 0.00, 0.00, -7758.83, -52334.60, -5404.50, 0.00, 0.00, 0.00, 0.000, 0.000, 0.000, 18:58:16.399, 1565909896399
177, 0.00, 0.00, -7770.61, -52335.69, -5408.79, 0.00, 0.00, 0.00, 0.000, 0.000, 0.000, 18:58:16.407, 1565909896407
178, 0.00, 0.00, -7797.27, -52357.24, -5418.02, 0.00, 0.00, 0.00, 0.000, 0.000, 0.000, 18:58:16.407, 1565909896407
179, 0.00, 0.00, -7797.47, -52359.56, -5412.97, 0.00, 0.00, 0.00, 0.000, 0.000, 0.000, 18:58:16.415, 1565909896415
180, 0.00, 0.00, -7769.65, -52340.48, -5400.16, 0.00, 0.00, 0.00, 0.000, 0.000, 0.000, 18:58:16.415, 1565909896415
181, 0.00, 0.00, -7772.68, -52338.93, -5406.19, 0.00, 0.00, 0.00, 0.000, 0.000, 0.000, 18:58:16.422, 1565909896422
182, 0.00, 0.00, -7809.83, -52367.95, -5425.77, 0.00, 0.00, 0.00, 0.000, 0.000, 0.000, 18:58:16.422, 1565909896422
183, 0.00, 0.00, -7810.73, -52374.07, -5425.19, 0.00, 0.00, 0.00, 0.000, 0.000, 0.000, 18:58:16.430, 1565909896430
184, 0.00, 0.00, -7766.76, -52342.60, -5403.00, 0.00, 0.00, 0.00, 0.000, 0.000, 0.000, 18:58:16.430, 1565909896430
185, 0.00, 0.00, -7750.65, -52324.88, -5398.53, 0.00, 0.00, 0.00, 0.252, 0.138, 0.938, 18:58:16.437, 1565909896437
186, 0.00, 0.00, -7792.65, -52355.09, -5417.01, 0.00, 0.00, 0.00, 0.000, 0.000, 0.000, 18:58:16.437, 1565909896437
187, 0.00, 0.00, -7815.67, -52376.89, -5426.24, 0.00, 0.00, 0.00, 0.000, 0.000, 0.000, 18:58:16.445, 1565909896445
188, 0.00, 0.00, -7787.39, -52356.75, -5411.56, 0.00, 0.00, 0.00, 0.000, 0.000, 0.000, 18:58:16.452, 1565909896452
189, 0.00, 0.00, -7763.05, -52332.79, -5399.78, 0.00, 0.00, 0.00, 0.000, 0.000, 0.000, 18:58:16.452, 1565909896452
190, 0.00, 0.00, -7800.18, -52361.62, -5423.09, 0.00, 0.00, 0.00, 0.000, 0.000, 0.000, 18:58:16.459, 1565909896459
191, 0.00, 0.00, -7811.42, -52374.54, -5425.84, 0.00, 0.00, 0.00, 0.000, 0.000, 0.000, 18:58:16.459, 1565909896459
192, 0.00, 0.00, -7782.61, -52353.59, -5408.14, 0.00, 0.00, 0.00, 0.000, 0.000, 0.000, 18:58:16.467, 1565909896467
193, 0.00, 0.00, -7747.94, -52322.68, -5391.67, 0.00, 0.00, 0.00, 0.000, 0.000, 0.000, 18:58:16.467, 1565909896467
194, 0.00, 0.00, -7776.33, -52343.52, -5411.38, 0.00, 0.00, 0.00, 0.000, 0.000, 0.000, 18:58:16.475, 1565909896475
195, 0.00, 0.00, -7799.95, -52365.02, -5420.99, 0.00, 0.00, 0.00, 0.250, 0.136, 0.936, 18:58:16.475, 1565909896475
196, 0.00, 0.00, -7788.44, -52357.64, -5410.75, 0.00, 0.00, 0.00, 0.000, 0.000, 0.000, 18:58:16.482, 1565909896482
197, 0.00, 0.00, -7756.97, -52333.72, -5397.52, 0.00, 0.00, 0.00, 0.000, 0.000, 0.000, 18:58:16.482, 1565909896482
198, 0.00, 0.00, -7782.25, -52345.97, -5411.56, 0.00, 0.00, 0.00, 0.000, 0.000, 0.000, 18:58:16.490, 1565909896490
199, 0.00, 0.00, -7814.19, -52373.91, -5426.85, 0.00, 0.00, 0.00, 0.000, 0.000, 0.000, 18:58:16.490, 1565909896490
200, 0.00, 0.00, -7804.38, -52370.54, -5420.95, 0.00, 0.00, 0.00, 0.000, 0.000, 0.000, 18:58:16.498, 1565909896498
201, 0.00, 0.00, -7766.20, -52339.89, -5402.46, 0.00, 0.00, 0.00, 0.000, 0.000, 0.000, 18:58:16.498, 1565909896498
202, 0.00, 0.00, -7773.33, -52342.24, -5412.50, 0.00, 0.00, 0.00, 0.000, 0.000, 0.000, 18:58:16.505, 1565909896505
203, 0.00, 0.00, -7800.45, -52365.53, -5425.15, 0.00, 0.00, 0.00, 0.000, 0.000, 0.000, 18:58:16.512, 1565909896512
204, 0.00, 0.00, -7785.34, -52358.27, -5416.32, 0.00, 0.00, 0.00, 0.252, 0.136, 0.938, 18:58:16.512, 1565909896512
205, 0.00, 0.00, -7743.14, -52324.34, -5391.11, 0.00, 0.00, 0.00, 0.000, 0.000, 0.000, 18:58:16.520, 1565909896520
206, 0.00, 0.00, -7752.10, -52323.00, -5394.68, 0.00, 0.00, 0.00, 0.000, 0.000, 0.000, 18:58:16.520, 1565909896520
207, 0.00, 0.00, -7820.63, -52378.16, -5433.02, 0.00, 0.00, 0.00, 0.000, 0.000, 0.000, 18:58:16.528, 1565909896528
208, 0.00, 0.00, -7821.90, -52384.69, -5433.33, 0.00, 0.00, 0.00, 0.000, 0.000, 0.000, 18:58:16.528, 1565909896528
209, 0.00, 0.00, -7777.27, -52352.57, -5408.61, 0.00, 0.00, 0.00, 0.000, 0.000, 0.000, 18:58:16.534, 1565909896534
210, 0.00, 0.00, -7760.82, -52334.21, -5403.35, 0.00, 0.00, 0.00, 0.000, 0.000, 0.000, 18:58:16.534, 1565909896534
211, 0.00, 0.00, -7797.00, -52360.93, -5420.14, 0.00, 0.00, 0.00, 0.000, 0.000, 0.000, 18:58:16.542, 1565909896542
212, 0.00, 0.00, -7804.63, -52374.09, -5424.79, 0.00, 0.00, 0.00, 0.000, 0.000, 0.000, 18:58:16.542, 1565909896542
213, 0.00, 0.00, -7782.12, -52360.46, -5415.18, 0.00, 0.00, 0.00, 0.000, 0.000, 0.000, 18:58:16.550, 1565909896550
214, 0.00, 0.00, -7769.00, -52339.65, -5405.34, 0.00, 0.00, 0.00, 0.256, 0.136, 0.938, 18:58:16.550, 1565909896550
215, 0.00, 0.00, -7807.75, -52367.43, -5426.96, 0.00, 0.00, 0.00, 0.000, 0.000, 0.000, 18:58:16.558, 1565909896558
216, 0.00, 0.00, -7821.19, -52385.43, -5435.97, 0.00, 0.00, 0.00, 0.000, 0.000, 0.000, 18:58:16.558, 1565909896558
217, 0.00, 0.00, -7790.12, -52363.23, -5415.67, 0.00, 0.00, 0.00, 0.000, 0.000, 0.000, 18:58:16.564, 1565909896564
218, 0.00, 0.00, -7755.43, -52332.38, -5398.57, 0.00, 0.00, 0.00, 0.000, 0.000, 0.000, 18:58:16.572, 1565909896572
219, 0.00, 0.00, -7785.56, -52352.39, -5417.24, 0.00, 0.00, 0.00, 0.000, 0.000, 0.000, 18:58:16.572, 1565909896572
220, 0.00, 0.00, -7807.51, -52371.12, -5425.82, 0.00, 0.00, 0.00, 0.000, 0.000, 0.000, 18:58:16.580, 1565909896580
221, 0.00, 0.00, -7796.71, -52363.86, -5417.15, 0.00, 0.00, 0.00, 0.000, 0.000, 0.000, 18:58:16.580, 1565909896580
222, 0.00, 0.00, -7768.33, -52341.32, -5403.98, 0.00, 0.00, 0.00, 0.000, 0.000, 0.000, 18:58:16.587, 1565909896587
223, 0.00, 0.00, -7784.20, -52349.41, -5414.51, 0.00, 0.00, 0.00, 0.000, 0.000, 0.000, 18:58:16.587, 1565909896587
224, 0.00, 0.00, -7804.65, -52365.26, -5418.17, 0.00, 0.00, 0.00, 0.254, 0.132, 0.938, 18:58:16.595, 1565909896595
225, 0.00, 0.00, -7795.06, -52360.34, -5409.39, 0.00, 0.00, 0.00, 0.000, 0.000, 0.000, 18:58:16.595, 1565909896595
226, 0.00, 0.00, -7756.10, -52331.60, -5390.82, 0.00, 0.00, 0.00, 0.000, 0.000, 0.000, 18:58:16.603, 1565909896603
227, 0.00, 0.00, -7754.02, -52325.54, -5394.50, 0.00, 0.00, 0.00, 0.000, 0.000, 0.000, 18:58:16.603, 1565909896603
228, 0.00, 0.00, -7784.84, -52346.69, -5401.99, 0.00, 0.00, 0.00, 0.000, 0.000, 0.000, 18:58:16.610, 1565909896610
229, 0.00, 0.00, -7795.95, -52361.87, -5410.66, 0.00, 0.00, 0.00, 0.000, 0.000, 0.000, 18:58:16.610, 1565909896610
230, 0.00, 0.00, -7772.57, -52349.82, -5408.67, 0.00, 0.00, 0.00, 0.000, 0.000, 0.000, 18:58:16.617, 1565909896617
231, 0.00, 0.00, -7776.48, -52349.32, -5417.62, 0.00, 0.00, 0.00, 0.000, 0.000, 0.000, 18:58:16.617, 1565909896617
232, 0.00, 0.00, -7811.00, -52378.32, -5437.13, 0.00, 0.00, 0.00, 0.000, 0.000, 0.000, 18:58:16.624, 1565909896624
233, 0.00, 0.00, -7812.65, -52385.16, -5438.25, 0.00, 0.00, 0.00, 0.000, 0.000, 0.000, 18:58:16.632, 1565909896632
234, 0.00, 0.00, -7771.86, -52355.74, -5415.43, 0.00, 0.00, 0.00, 0.260, 0.132, 0.938, 18:58:16.632, 1565909896632
235, 0.00, 0.00, -7759.77, -52335.98, -5404.43, 0.00, 0.00, 0.00, 0.000, 0.000, 0.000, 18:58:16.640, 1565909896640
236, 0.00, 0.00, -7800.51, -52365.08, -5424.70, 0.00, 0.00, 0.00, 0.000, 0.000, 0.000, 18:58:16.640, 1565909896640
237, 0.00, 0.00, -7806.59, -52376.04, -5427.65, 0.00, 0.00, 0.00, 0.000, 0.000, 0.000, 18:58:16.647, 1565909896647
238, 0.00, 0.00, -7780.33, -52353.71, -5407.38, 0.00, 0.00, 0.00, 0.000, 0.000, 0.000, 18:58:16.647, 1565909896647
239, 0.00, 0.00, -7755.88, -52328.70, -5393.79, 0.00, 0.00, 0.00, 0.000, 0.000, 0.000, 18:58:16.655, 1565909896655
240, 0.00, 0.00, -7790.36, -52352.95, -5413.23, 0.00, 0.00, 0.00, 0.000, 0.000, 0.000, 18:58:16.655, 1565909896655
241, 0.00, 0.00, -7812.07, -52374.07, -5424.16, 0.00, 0.00, 0.00, 0.000, 0.000, 0.000, 18:58:16.663, 1565909896663
242, 0.00, 0.00, -7795.17, -52365.08, -5417.71, 0.00, 0.00, 0.00, 0.000, 0.000, 0.000, 18:58:16.663, 1565909896663
243, 0.00, 0.00, -7761.24, -52334.82, -5399.96, 0.00, 0.00, 0.00, 0.000, 0.000, 0.000, 18:58:16.670, 1565909896670
244, 0.00, 0.00, -7785.40, -52351.16, -5415.69, 0.00, 0.00, 0.00, 0.256, 0.130, 0.940, 18:58:16.670, 1565909896670
245, 0.00, 0.00, -7810.68, -52375.63, -5427.72, 0.00, 0.00, 0.00, 0.000, 0.000, 0.000, 18:58:16.677, 1565909896677
246, 0.00, 0.00, -7796.04, -52366.83, -5417.75, 0.00, 0.00, 0.00, 0.000, 0.000, 0.000, 18:58:16.678, 1565909896678
247, 0.00, 0.00, -7758.09, -52334.44, -5397.88, 0.00, 0.00, 0.00, 0.000, 0.000, 0.000, 18:58:16.685, 1565909896685
248, 0.00, 0.00, -7771.46, -52339.89, -5408.09, 0.00, 0.00, 0.00, 0.000, 0.000, 0.000, 18:58:16.685, 1565909896685
249, 0.00, 0.00, -7793.65, -52358.20, -5415.22, 0.00, 0.00, 0.00, 0.000, 0.000, 0.000, 18:58:16.692, 1565909896692
250, 0.00, 0.00, -7785.27, -52356.97, -5410.06, 0.00, 0.00, 0.00, 0.000, 0.000, 0.000, 18:58:16.700, 1565909896700
251, 0.00, 0.00, -7760.91, -52340.59, -5403.00, 0.00, 0.00, 0.00, 0.000, 0.000, 0.000, 18:58:16.700, 1565909896700
252, 0.00, 0.00, -7776.33, -52343.96, -5410.62, 0.00, 0.00, 0.00, 0.000, 0.000, 0.000, 18:58:16.708, 1565909896708
253, 0.00, 0.00, -7814.88, -52374.54, -5426.60, 0.00, 0.00, 0.00, 0.000, 0.000, 0.000, 18:58:16.708, 1565909896708
254, 0.00, 0.00, -7810.24, -52376.06, -5424.37, 0.00, 0.00, 0.00, 0.252, 0.136, 0.938, 18:58:16.715, 1565909896715
255, 0.00, 0.00, -7768.66, -52344.39, -5402.91, 0.00, 0.00, 0.00, 0.000, 0.000, 0.000, 18:58:16.716, 1565909896716
0, 0.00, 0.00, -7756.64, -52329.25, -5398.57, 0.00, 0.00, 0.00, 0.000, 0.000, 0.000, 18:58:16.722, 1565909896722
1, 0.00, 0.00, -7794.70, -52357.89, -5417.55, 0.00, 0.00, 0.00, 0.000, 0.000, 0.000, 18:58:16.722, 1565909896722
2, 0.00, 0.00, -7805.25, -52368.04, -5419.49, 0.00, 0.00, 0.00, 0.000, 0.000, 0.000, 18:58:16.730, 1565909896730
3, 0.00, 0.00, -7776.53, -52347.92, -5404.92, 0.00, 0.00, 0.00, 0.000, 0.000, 0.000, 18:58:16.730, 1565909896730
4, 0.00, 0.00, -7752.37, -52327.18, -5397.88, 0.00, 0.00, 0.00, 0.000, 0.000, 0.000, 18:58:16.738, 1565909896738
5, 0.00, 0.00, -7777.60, -52346.53, -5412.07, 0.00, 0.00, 0.00, 0.000, 0.000, 0.000, 18:58:16.738, 1565909896738
6, 0.00, 0.00, -7793.81, -52362.11, -5417.46, 0.00, 0.00, 0.00, 0.000, 0.000, 0.000, 18:58:16.746, 1565909896746
7, 0.00, 0.00, -7776.93, -52349.26, -5403.31, 0.00, 0.00, 0.00, 0.000, 0.000, 0.000, 18:58:16.746, 1565909896746
8, 0.00, 0.00, -7758.54, -52331.11, -5395.53, 0.00, 0.00, 0.00, 0.252, 0.136, 0.930, 18:58:16.752, 1565909896752
9, 0.00, 0.00, -7788.38, -52351.96, -5411.78, 0.00, 0.00, 0.00, 0.000, 0.000, 0.000, 18:58:16.759, 1565909896759
10, 0.00, 0.00, -7804.89, -52366.36, -5415.96, 0.00, 0.00, 0.00, 0.000, 0.000, 0.000, 18:58:16.759, 1565909896759
11, 0.00, 0.00, -7787.75, -52356.95, -5406.22, 0.00, 0.00, 0.00, 0.000, 0.000, 0.000, 18:58:16.767, 1565909896767
12, 0.00, 0.00, -7757.04, -52332.00, -5393.05, 0.00, 0.00, 0.00, 0.000, 0.000, 0.000, 18:58:16.767, 1565909896767
13, 0.00, 0.00, -7780.15, -52346.87, -5407.33, 0.00, 0.00, 0.00, 0.000, 0.000, 0.000, 18:58:16.775, 1565909896775
14, 0.00, 0.00, -7803.46, -52367.50, -5415.60, 0.00, 0.00, 0.00, 0.000, 0.000, 0.000, 18:58:16.775, 1565909896775
15, 0.00, 0.00, -7788.76, -52358.47, -5407.76, 0.00, 0.00, 0.00, 0.000, 0.000, 0.000, 18:58:16.782, 1565909896782
16, 0.00, 0.00, -7750.40, -52331.87, -5391.73, 0.00, 0.00, 0.00, 0.000, 0.000, 0.000, 18:58:16.782, 1565909896782
17, 0.00, 0.00, -7767.88, -52334.37, -5396.34, 0.00, 0.00, 0.00, 0.250, 0.132, 0.938, 18:58:16.790, 1565909896790
18, 0.00, 0.00, -7798.28, -52357.55, -5406.86, 0.00, 0.00, 0.00, 0.000, 0.000, 0.000, 18:58:16.790, 1565909896790
19, 0.00, 0.00, -7788.80, -52355.11, -5401.59, 0.00, 0.00, 0.00, 0.000, 0.000, 0.000, 18:58:16.798, 1565909896798
20, 0.00, 0.00, -7752.34, -52327.42, -5384.13, 0.00, 0.00, 0.00, 0.000, 0.000, 0.000, 18:58:16.798, 1565909896798
21, 0.00, 0.00, -7762.98, -52333.03, -5393.54, 0.00, 0.00, 0.00, 0.000, 0.000, 0.000, 18:58:16.805, 1565909896805
22, 0.00, 0.00, -7802.12, -52364.10, -5414.02, 0.00, 0.00, 0.00, 0.000, 0.000, 0.000, 18:58:16.805, 1565909896805
23, 0.00, 0.00, -7798.66, -52361.89, -5407.96, 0.00, 0.00, 0.00, 0.000, 0.000, 0.000, 18:58:16.812, 1565909896812
24, 0.00, 0.00, -7755.25, -52329.63, -5383.98, 0.00, 0.00, 0.00, 0.000, 0.000, 0.000, 18:58:16.820, 1565909896820
25, 0.00, 0.00, -7748.21, -52320.18, -5383.26, 0.00, 0.00, 0.00, 0.000, 0.000, 0.000, 18:58:16.820, 1565909896820
26, 0.00, 0.00, -7791.35, -52353.39, -5405.88, 0.00, 0.00, 0.00, 0.000, 0.000, 0.000, 18:58:16.827, 1565909896827
27, 0.00, 0.00, -7803.62, -52366.94, -5410.42, 0.00, 0.00, 0.00, 0.252, 0.136, 0.938, 18:58:16.828, 1565909896828
28, 0.00, 0.00, -7777.65, -52343.80, -5392.29, 0.00, 0.00, 0.00, 0.000, 0.000, 0.000, 18:58:16.835, 1565909896835
29, 0.00, 0.00, -7758.31, -52322.73, -5381.67, 0.00, 0.00, 0.00, 0.000, 0.000, 0.000, 18:58:16.835, 1565909896835
30, 0.00, 0.00, -7791.91, -52350.51, -5404.14, 0.00, 0.00, 0.00, 0.000, 0.000, 0.000, 18:58:16.842, 1565909896842
31, 0.00, 0.00, -7803.71, -52364.82, -5410.33, 0.00, 0.00, 0.00, 0.000, 0.000, 0.000, 18:58:16.842, 1565909896842
32, 0.00, 0.00, -7776.89, -52350.67, -5399.00, 0.00, 0.00, 0.00, 0.000, 0.000, 0.000, 18:58:16.850, 1565909896850
33, 0.00, 0.00, -7746.60, -52324.07, -5384.60, 0.00, 0.00, 0.00, 0.000, 0.000, 0.000, 18:58:16.850, 1565909896850
34, 0.00, 0.00, -7786.30, -52350.40, -5405.61, 0.00, 0.00, 0.00, 0.000, 0.000, 0.000, 18:58:16.858, 1565909896858
35, 0.00, 0.00, -7824.14, -52381.18, -5423.18, 0.00, 0.00, 0.00, 0.000, 0.000, 0.000, 18:58:16.858, 1565909896858
36, 0.00, 0.00, -7809.97, -52372.59, -5414.84, 0.00, 0.00, 0.00, 0.000, 0.000, 0.000, 18:58:16.865, 1565909896865
37, 0.00, 0.00, -7773.71, -52342.66, -5397.97, 0.00, 0.00, 0.00, 0.252, 0.134, 0.936, 18:58:16.865, 1565909896865
38, 0.00, 0.00, -7798.08, -52358.00, -5413.01, 0.00, 0.00, 0.00, 0.000, 0.000, 0.000, 18:58:16.872, 1565909896872
39, 0.00, 0.00, -7822.84, -52381.58, -5424.25, 0.00, 0.00, 0.00, 0.000, 0.000, 0.000, 18:58:16.880, 1565909896880
40, 0.00, 0.00, -7811.53, -52374.38, -5419.20, 0.00, 0.00, 0.00, 0.000, 0.000, 0.000, 18:58:16.880, 1565909896880
41, 0.00, 0.00, -7766.58, -52338.64, -5396.67, 0.00, 0.00, 0.00, 0.000, 0.000, 0.000, 18:58:16.887, 1565909896887
42, 0.00, 0.00, -7769.20, -52337.95, -5401.79, 0.00, 0.00, 0.00, 0.000, 0.000, 0.000, 18:58:16.887, 1565909896887
43, 0.00, 0.00, -7793.74, -52358.31, -5411.54, 0.00, 0.00, 0.00, 0.000, 0.000, 0.000, 18:58:16.895, 1565909896895
44, 0.00, 0.00, -7791.57, -52358.67, -5408.14, 0.00, 0.00, 0.00, 0.000, 0.000, 0.000, 18:58:16.895, 1565909896895
45, 0.00, 0.00, -7762.60, -52339.89, -5396.54, 0.00, 0.00, 0.00, 0.000, 0.000, 0.000, 18:58:16.903, 1565909896903
46, 0.00, 0.00, -7765.08, -52339.27, -5405.01, 0.00, 0.00, 0.00, 0.000, 0.000, 0.000, 18:58:16.903, 1565909896903
47, 0.00, 0.00, -7795.55, -52362.02, -5420.57, 0.00, 0.00, 0.00, 0.256, 0.134, 0.938, 18:58:16.911, 1565909896911
48, 0.00, 0.00, -7797.85, -52368.93, -5421.04, 0.00, 0.00, 0.00, 0.000, 0.000, 0.000, 18:58:16.911, 1565909896911
49, 0.00, 0.00, -7754.54, -52335.76, -5397.03, 0.00, 0.00, 0.00, 0.000, 0.000, 0.000, 18:58:16.917, 1565909896917
50, 0.00, 0.00, -7732.09, -52314.57, -5388.60, 0.00, 0.00, 0.00, 0.000, 0.000, 0.000, 18:58:16.917, 1565909896917
51, 0.00, 0.00, -7770.29, -52346.78, -5411.27, 0.00, 0.00, 0.00, 0.000, 0.000, 0.000, 18:58:16.925, 1565909896925
52, 0.00, 0.00, -7799.93, -52367.01, -5417.93, 0.00, 0.00, 0.00, 0.000, 0.000, 0.000, 18:58:16.925, 1565909896925
53, 0.00, 0.00, -7804.83, -52367.90, -5416.19, 0.00, 0.00, 0.00, 0.000, 0.000, 0.000, 18:58:16.932, 1565909896932
54, 0.00, 0.00, -7798.99, -52363.25, -5423.47, 0.00, 0.00, 0.00, 0.000, 0.000, 0.000, 18:58:16.932, 1565909896932
55, 0.00, 0.00, -7822.84, -52383.79, -5440.08, 0.00, 0.00, 0.00, 0.000, 0.000, 0.000, 18:58:16.940, 1565909896940
56, 0.00, 0.00, -7825.77, -52390.86, -5439.41, 0.00, 0.00, 0.00, 0.000, 0.000, 0.000, 18:58:16.947, 1565909896947
57, 0.00, 0.00, -7799.53, -52372.75, -5423.38, 0.00, 0.00, 0.00, 0.256, 0.134, 0.936, 18:58:16.947, 1565909896947
58, 0.00, 0.00, -7773.74, -52348.39, -5410.17, 0.00, 0.00, 0.00, 0.000, 0.000, 0.000, 18:58:16.955, 1565909896955
59, 0.00, 0.00, -7803.42, -52365.44, -5425.68, 0.00, 0.00, 0.00, 0.000, 0.000, 0.000, 18:58:16.955, 1565909896955
60, 0.00, 0.00, -7822.04, -52384.84, -5432.68, 0.00, 0.00, 0.00, 0.000, 0.000, 0.000, 18:58:16.963, 1565909896963
61, 0.00, 0.00, -7797.32, -52368.04, -5417.24, 0.00, 0.00, 0.00, 0.000, 0.000, 0.000, 18:58:16.963, 1565909896963
62, 0.00, 0.00, -7757.75, -52335.42, -5399.18, 0.00, 0.00, 0.00, 0.000, 0.000, 0.000, 18:58:16.970, 1565909896970
63, 0.00, 0.00, -7778.70, -52348.41, -5412.70, 0.00, 0.00, 0.00, 0.000, 0.000, 0.000, 18:58:16.970, 1565909896970
64, 0.00, 0.00, -7807.17, -52372.44, -5424.63, 0.00, 0.00, 0.00, 0.000, 0.000, 0.000, 18:58:16.977, 1565909896977
65, 0.00, 0.00, -7793.81, -52363.59, -5416.54, 0.00, 0.00, 0.00, 0.000, 0.000, 0.000, 18:58:16.978, 1565909896978
66, 0.00, 0.00, -7747.36, -52327.89, -5393.19, 0.00, 0.00, 0.00, 0.000, 0.000, 0.000, 18:58:16.985, 1565909896985
67, 0.00, 0.00, -7750.53, -52324.85, -5395.13, 0.00, 0.00, 0.00, 0.254, 0.130, 0.938, 18:58:16.986, 1565909896986
68, 0.00, 0.00, -7785.36, -52351.07, -5408.03, 0.00, 0.00, 0.00, 0.000, 0.000, 0.000, 18:58:16.993, 1565909896993
69, 0.00, 0.00, -7781.89, -52354.29, -5407.76, 0.00, 0.00, 0.00, 0.000, 0.000, 0.000, 18:58:16.994, 1565909896994
70, 0.00, 0.00, -7746.58, -52326.88, -5388.96, 0.00, 0.00, 0.00, 0.000, 0.000, 0.000, 18:58:17.000, 1565909897000
71, 0.00, 0.00, -7755.32, -52326.86, -5396.72, 0.00, 0.00, 0.00, 0.000, 0.000, 0.000, 18:58:17.007, 1565909897007
72, 0.00, 0.00, -7795.10, -52360.12, -5418.96, 0.00, 0.00, 0.00, 0.000, 0.000, 0.000, 18:58:17.007, 1565909897007
73, 0.00, 0.00, -7799.44, -52367.61, -5420.54, 0.00, 0.00, 0.00, 0.000, 0.000, 0.000, 18:58:17.015, 1565909897015
74, 0.00, 0.00, -7768.66, -52341.61, -5402.28, 0.00, 0.00, 0.00, 0.000, 0.000, 0.000, 18:58:17.015, 1565909897015
75, 0.00, 0.00, -7764.26, -52335.36, -5405.75, 0.00, 0.00, 0.00, 0.000, 0.000, 0.000, 18:58:17.023, 1565909897023
76, 0.00, 0.00, -7794.77, -52358.13, -5420.45, 0.00, 0.00, 0.00, 0.258, 0.132, 0.944, 18:58:17.023, 1565909897023
77, 0.00, 0.00, -7811.82, -52375.54, -5428.10, 0.00, 0.00, 0.00, 0.000, 0.000, 0.000, 18:58:17.030, 1565909897030
78, 0.00, 0.00, -7792.42, -52361.04, -5414.82, 0.00, 0.00, 0.00, 0.000, 0.000, 0.000, 18:58:17.030, 1565909897030
79, 0.00, 0.00, -7767.77, -52339.67, -5406.82, 0.00, 0.00, 0.00, 0.000, 0.000, 0.000, 18:58:17.038, 1565909897038
80, 0.00, 0.00, -7788.06, -52353.02, -5416.88, 0.00, 0.00, 0.00, 0.000, 0.000, 0.000, 18:58:17.038, 1565909897038
81, 0.00, 0.00, -7799.73, -52364.14, -5417.71, 0.00, 0.00, 0.00, 0.000, 0.000, 0.000, 18:58:17.046, 1565909897046
82, 0.00, 0.00, -7784.93, -52355.03, -5409.59, 0.00, 0.00, 0.00, 0.000, 0.000, 0.000, 18:58:17.046, 1565909897046
83, 0.00, 0.00, -7767.30, -52339.83, -5404.47, 0.00, 0.00, 0.00, 0.000, 0.000, 0.000, 18:58:17.053, 1565909897053
84, 0.00, 0.00, -7791.24, -52354.47, -5415.98, 0.00, 0.00, 0.00, 0.000, 0.000, 0.000, 18:58:17.053, 1565909897053
85, 0.00, 0.00, -7805.09, -52368.48, -5421.46, 0.00, 0.00, 0.00, 0.000, 0.000, 0.000, 18:58:17.059, 1565909897059
86, 0.00, 0.00, -7788.15, -52359.41, -5413.46, 0.00, 0.00, 0.00, 0.256, 0.134, 0.946, 18:58:17.067, 1565909897067
87, 0.00, 0.00, -7752.28, -52329.32, -5395.51, 0.00, 0.00, 0.00, 0.000, 0.000, 0.000, 18:58:17.067, 1565909897067
88, 0.00, 0.00, -7769.44, -52338.98, -5407.45, 0.00, 0.00, 0.00, 0.000, 0.000, 0.000, 18:58:17.076, 1565909897076
89, 0.00, 0.00, -7797.83, -52362.11, -5416.45, 0.00, 0.00, 0.00, 0.000, 0.000, 0.000, 18:58:17.076, 1565909897076
90, 0.00, 0.00, -7788.67, -52356.70, -5408.97, 0.00, 0.00, 0.00, 0.000, 0.000, 0.000, 18:58:17.082, 1565909897082
91, 0.00, 0.00, -7753.71, -52328.65, -5392.36, 0.00, 0.00, 0.00, 0.000, 0.000, 0.000, 18:58:17.082, 1565909897082
92, 0.00, 0.00, -7763.45, -52331.49, -5401.25, 0.00, 0.00, 0.00, 0.000, 0.000, 0.000, 18:58:17.090, 1565909897090
93, 0.00, 0.00, -7794.19, -52358.04, -5415.29, 0.00, 0.00, 0.00, 0.000, 0.000, 0.000, 18:58:17.090, 1565909897090
94, 0.00, 0.00, -7789.52, -52358.13, -5409.95, 0.00, 0.00, 0.00, 0.000, 0.000, 0.000, 18:58:17.098, 1565909897098
95, 0.00, 0.00, -7760.55, -52335.98, -5395.46, 0.00, 0.00, 0.00, 0.000, 0.000, 0.000, 18:58:17.098, 1565909897098
96, 0.00, 0.00, -7765.24, -52337.21, -5402.44, 0.00, 0.00, 0.00, 0.256, 0.134, 0.940, 18:58:17.105, 1565909897105
97, 0.00, 0.00, -7795.86, -52363.63, -5418.60, 0.00, 0.00, 0.00, 0.000, 0.000, 0.000, 18:58:17.106, 1565909897106
98, 0.00, 0.00, -7794.46, -52367.14, -5418.33, 0.00, 0.00, 0.00, 0.000, 0.000, 0.000, 18:58:17.113, 1565909897113
99, 0.00, 0.00, -7766.98, -52344.18, -5401.48, 0.00, 0.00, 0.00, 0.000, 0.000, 0.000, 18:58:17.113, 1565909897113
100, 0.00, 0.00, -7759.21, -52333.01, -5399.00, 0.00, 0.00, 0.00, 0.000, 0.000, 0.000, 18:58:17.120, 1565909897120
101, 0.00, 0.00, -7805.63, -52366.09, -5423.56, 0.00, 0.00, 0.00, 0.000, 0.000, 0.000, 18:58:17.128, 1565909897128
102, 0.00, 0.00, -7822.53, -52383.30, -5431.34, 0.00, 0.00, 0.00, 0.000, 0.000, 0.000, 18:58:17.128, 1565909897128
103, 0.00, 0.00, -7792.24, -52363.00, -5415.58, 0.00, 0.00, 0.00, 0.000, 0.000, 0.000, 18:58:17.135, 1565909897135
104, 0.00, 0.00, -7767.72, -52342.44, -5406.53, 0.00, 0.00, 0.00, 0.000, 0.000, 0.000, 18:58:17.135, 1565909897135
105, 0.00, 0.00, -7798.03, -52364.12, -5421.91, 0.00, 0.00, 0.00, 0.000, 0.000, 0.000, 18:58:17.143, 1565909897143
106, 0.00, 0.00, -7814.97, -52378.52, -5426.58, 0.00, 0.00, 0.00, 0.258, 0.138, 0.932, 18:58:17.143, 1565909897143
107, 0.00, 0.00, -7790.16, -52361.73, -5411.49, 0.00, 0.00, 0.00, 0.000, 0.000, 0.000, 18:58:17.150, 1565909897150
108, 0.00, 0.00, -7756.26, -52334.77, -5396.54, 0.00, 0.00, 0.00, 0.000, 0.000, 0.000, 18:58:17.151, 1565909897151
109, 0.00, 0.00, -7786.21, -52350.82, -5411.33, 0.00, 0.00, 0.00, 0.000, 0.000, 0.000, 18:58:17.158, 1565909897158
110, 0.00, 0.00, -7812.02, -52370.45, -5418.38, 0.00, 0.00, 0.00, 0.000, 0.000, 0.000, 18:58:17.158, 1565909897158
111, 0.00, 0.00, -7794.25, -52360.19, -5408.12, 0.00, 0.00, 0.00, 0.000, 0.000, 0.000, 18:58:17.165, 1565909897165
112, 0.00, 0.00, -7755.25, -52328.61, -5388.49, 0.00, 0.00, 0.00, 0.000, 0.000, 0.000, 18:58:17.165, 1565909897165
113, 0.00, 0.00, -7770.54, -52337.37, -5400.11, 0.00, 0.00, 0.00, 0.000, 0.000, 0.000, 18:58:17.173, 1565909897173
114, 0.00, 0.00, -7792.67, -52358.85, -5413.17, 0.00, 0.00, 0.00, 0.000, 0.000, 0.000, 18:58:17.173, 1565909897173
115, 0.00, 0.00, -7778.99, -52352.88, -5407.51, 0.00, 0.00, 0.00, 0.000, 0.000, 0.000, 18:58:17.180, 1565909897180
116, 0.00, 0.00, -7746.40, -52325.72, -5389.16, 0.00, 0.00, 0.00, 0.256, 0.136, 0.930, 18:58:17.180, 1565909897180
117, 0.00, 0.00, -7768.80, -52339.60, -5406.35, 0.00, 0.00, 0.00, 0.000, 0.000, 0.000, 18:58:17.188, 1565909897188
118, 0.00, 0.00, -7801.18, -52365.98, -5422.22, 0.00, 0.00, 0.00, 0.000, 0.000, 0.000, 18:58:17.195, 1565909897195
119, 0.00, 0.00, -7795.57, -52364.12, -5416.79, 0.00, 0.00, 0.00, 0.000, 0.000, 0.000, 18:58:17.195, 1565909897195
120, 0.00, 0.00, -7763.74, -52339.96, -5400.78, 0.00, 0.00, 0.00, 0.000, 0.000, 0.000, 18:58:17.203, 1565909897203
121, 0.00, 0.00, -7769.11, -52339.43, -5407.36, 0.00, 0.00, 0.00, 0.000, 0.000, 0.000, 18:58:17.203, 1565909897203
122, 0.00, 0.00, -7803.06, -52366.11, -5423.81, 0.00, 0.00, 0.00, 0.000, 0.000, 0.000, 18:58:17.211, 1565909897211
123, 0.00, 0.00, -7808.72, -52373.64, -5422.06, 0.00, 0.00, 0.00, 0.000, 0.000, 0.000, 18:58:17.211, 1565909897211
124, 0.00, 0.00, -7774.45, -52349.66, -5404.43, 0.00, 0.00, 0.00, 0.000, 0.000, 0.000, 18:58:17.218, 1565909897218
125, 0.00, 0.00, -7756.99, -52333.90, -5402.93, 0.00, 0.00, 0.00, 0.000, 0.000, 0.000, 18:58:17.218, 1565909897218
126, 0.00, 0.00, -7792.94, -52358.89, -5418.02, 0.00, 0.00, 0.00, 0.256, 0.138, 0.936, 18:58:17.226, 1565909897226
127, 0.00, 0.00, -7807.33, -52374.67, -5424.97, 0.00, 0.00, 0.00, 0.000, 0.000, 0.000, 18:58:17.226, 1565909897226
128, 0.00, 0.00, -7778.99, -52357.37, -5412.05, 0.00, 0.00, 0.00, 0.000, 0.000, 0.000, 18:58:17.233, 1565909897233
129, 0.00, 0.00, -7758.20, -52336.88, -5403.56, 0.00, 0.00, 0.00, 0.000, 0.000, 0.000, 18:58:17.233, 1565909897233
130, 0.00, 0.00, -7793.52, -52360.34, -5421.30, 0.00, 0.00, 0.00, 0.000, 0.000, 0.000, 18:58:17.241, 1565909897241
131, 0.00, 0.00, -7807.96, -52376.95, -5427.32, 0.00, 0.00, 0.00, 0.000, 0.000, 0.000, 18:58:17.242, 1565909897242
132, 0.00, 0.00, -7783.95, -52359.68, -5410.78, 0.00, 0.00, 0.00, 0.000, 0.000, 0.000, 18:58:17.247, 1565909897247
133, 0.00, 0.00, -7758.07, -52335.40, -5399.98, 0.00, 0.00, 0.00, 0.000, 0.000, 0.000, 18:58:17.255, 1565909897255
134, 0.00, 0.00, -7785.20, -52354.40, -5417.48, 0.00, 0.00, 0.00, 0.000, 0.000, 0.000, 18:58:17.255, 1565909897255
135, 0.00, 0.00, -7809.05, -52375.93, -5428.72, 0.00, 0.00, 0.00, 0.254, 0.138, 0.938, 18:58:17.263, 1565909897263
136, 0.00, 0.00, -7794.52, -52365.35, -5417.64, 0.00, 0.00, 0.00, 0.000, 0.000, 0.000, 18:58:17.263, 1565909897263
137, 0.00, 0.00, -7767.52, -52343.58, -5404.25, 0.00, 0.00, 0.00, 0.000, 0.000, 0.000, 18:58:17.271, 1565909897271
138, 0.00, 0.00, -7783.41, -52353.13, -5414.17, 0.00, 0.00, 0.00, 0.000, 0.000, 0.000, 18:58:17.271, 1565909897271
139, 0.00, 0.00, -7806.19, -52370.76, -5420.45, 0.00, 0.00, 0.00, 0.000, 0.000, 0.000, 18:58:17.278, 1565909897278
140, 0.00, 0.00, -7790.68, -52360.05, -5409.37, 0.00, 0.00, 0.00, 0.000, 0.000, 0.000, 18:58:17.278, 1565909897278
141, 0.00, 0.00, -7747.61, -52326.17, -5387.57, 0.00, 0.00, 0.00, 0.000, 0.000, 0.000, 18:58:17.285, 1565909897285
142, 0.00, 0.00, -7756.37, -52328.09, -5393.56, 0.00, 0.00, 0.00, 0.000, 0.000, 0.000, 18:58:17.286, 1565909897286
143, 0.00, 0.00, -7807.29, -52369.96, -5421.88, 0.00, 0.00, 0.00, 0.000, 0.000, 0.000, 18:58:17.294, 1565909897294
144, 0.00, 0.00, -7809.27, -52375.41, -5421.66, 0.00, 0.00, 0.00, 0.000, 0.000, 0.000, 18:58:17.294, 1565909897294
145, 0.00, 0.00, -7783.73, -52354.18, -5405.68, 0.00, 0.00, 0.00, 0.256, 0.140, 0.936, 18:58:17.300, 1565909897300
146, 0.00, 0.00, -7781.25, -52351.89, -5414.96, 0.00, 0.00, 0.00, 0.000, 0.000, 0.000, 18:58:17.300, 1565909897300
147, 0.00, 0.00, -7808.18, -52377.00, -5433.57, 0.00, 0.00, 0.00, 0.000, 0.000, 0.000, 18:58:17.307, 1565909897307
148, 0.00, 0.00, -7808.29, -52380.30, -5432.57, 0.00, 0.00, 0.00, 0.000, 0.000, 0.000, 18:58:17.316, 1565909897316
149, 0.00, 0.00, -7773.06, -52359.32, -5419.92, 0.00, 0.00, 0.00, 0.000, 0.000, 0.000, 18:58:17.316, 1565909897316
150, 0.00, 0.00, -7757.87, -52342.80, -5415.58, 0.00, 0.00, 0.00, 0.000, 0.000, 0.000, 18:58:17.323, 1565909897323
151, 0.00, 0.00, -7798.28, -52366.02, -5428.39, 0.00, 0.00, 0.00, 0.000, 0.000, 0.000, 18:58:17.323, 1565909897323
152, 0.00, 0.00, -7813.03, -52379.41, -5430.33, 0.00, 0.00, 0.00, 0.000, 0.000, 0.000, 18:58:17.330, 1565909897330
153, 0.00, 0.00, -7784.69, -52358.33, -5411.42, 0.00, 0.00, 0.00, 0.000, 0.000, 0.000, 18:58:17.330, 1565909897330
154, 0.00, 0.00, -7753.13, -52330.62, -5397.19, 0.00, 0.00, 0.00, 0.000, 0.000, 0.000, 18:58:17.338, 1565909897338
155, 0.00, 0.00, -7778.83, -52348.36, -5411.87, 0.00, 0.00, 0.00, 0.256, 0.134, 0.934, 18:58:17.338, 1565909897338
156, 0.00, 0.00, -7795.42, -52364.04, -5415.63, 0.00, 0.00, 0.00, 0.000, 0.000, 0.000, 18:58:17.346, 1565909897346
157, 0.00, 0.00, -7776.64, -52351.61, -5404.34, 0.00, 0.00, 0.00, 0.000, 0.000, 0.000, 18:58:17.346, 1565909897346
158, 0.00, 0.00, -7748.97, -52327.00, -5392.72, 0.00, 0.00, 0.00, 0.000, 0.000, 0.000, 18:58:17.355, 1565909897355
159, 0.00, 0.00, -7774.41, -52342.24, -5406.17, 0.00, 0.00, 0.00, 0.000, 0.000, 0.000, 18:58:17.355, 1565909897355
160, 0.00, 0.00, -7803.80, -52367.27, -5417.88, 0.00, 0.00, 0.00, 0.000, 0.000, 0.000, 18:58:17.361, 1565909897361
161, 0.00, 0.00, -7794.37, -52363.90, -5412.97, 0.00, 0.00, 0.00, 0.000, 0.000, 0.000, 18:58:17.361, 1565909897361
162, 0.00, 0.00, -7755.74, -52332.74, -5393.79, 0.00, 0.00, 0.00, 0.000, 0.000, 0.000, 18:58:17.367, 1565909897367
163, 0.00, 0.00, -7762.96, -52335.00, -5399.82, 0.00, 0.00, 0.00, 0.000, 0.000, 0.000, 18:58:17.376, 1565909897376
164, 0.00, 0.00, -7791.39, -52355.81, -5408.50, 0.00, 0.00, 0.00, 0.000, 0.000, 0.000, 18:58:17.376, 1565909897376
165, 0.00, 0.00, -7790.10, -52357.62, -5404.36, 0.00, 0.00, 0.00, 0.260, 0.138, 0.938, 18:58:17.384, 1565909897384
166, 0.00, 0.00, -7760.46, -52335.07, -5393.01, 0.00, 0.00, 0.00, 0.000, 0.000, 0.000, 18:58:17.385, 1565909897385
167, 0.00, 0.00, -7769.31, -52338.17, -5401.39, 0.00, 0.00, 0.00, 0.000, 0.000, 0.000, 18:58:17.390, 1565909897390
168, 0.00, 0.00, -7807.04, -52369.73, -5419.00, 0.00, 0.00, 0.00, 0.000, 0.000, 0.000, 18:58:17.390, 1565909897390
169, 0.00, 0.00, -7805.47, -52371.99, -5415.76, 0.00, 0.00, 0.00, 0.000, 0.000, 0.000, 18:58:17.398, 1565909897398
170, 0.00, 0.00, -7765.31, -52342.15, -5394.17, 0.00, 0.00, 0.00, 0.000, 0.000, 0.000, 18:58:17.398, 1565909897398
171, 0.00, 0.00, -7759.14, -52332.65, -5395.44, 0.00, 0.00, 0.00, 0.000, 0.000, 0.000, 18:58:17.406, 1565909897406
172, 0.00, 0.00, -7797.56, -52362.74, -5414.71, 0.00, 0.00, 0.00, 0.000, 0.000, 0.000, 18:58:17.407, 1565909897407
173, 0.00, 0.00, -7797.18, -52368.50, -5414.13, 0.00, 0.00, 0.00, 0.000, 0.000, 0.000, 18:58:17.413, 1565909897413
174, 0.00, 0.00, -7760.44, -52340.45, -5390.59, 0.00, 0.00, 0.00, 0.000, 0.000, 0.000, 18:58:17.413, 1565909897413
175, 0.00, 0.00, -7749.13, -52324.88, -5386.06, 0.00, 0.00, 0.00, 0.256, 0.140, 0.938, 18:58:17.421, 1565909897421
176, 0.00, 0.00, -7788.82, -52355.85, -5410.17, 0.00, 0.00, 0.00, 0.000, 0.000, 0.000, 18:58:17.421, 1565909897421
177, 0.00, 0.00, -7802.44, -52370.25, -5414.58, 0.00, 0.00, 0.00, 0.000, 0.000, 0.000, 18:58:17.428, 1565909897428
178, 0.00, 0.00, -7775.26, -52350.36, -5397.48, 0.00, 0.00, 0.00, 0.000, 0.000, 0.000, 18:58:17.428, 1565909897428
179, 0.00, 0.00, -7746.94, -52327.31, -5387.82, 0.00, 0.00, 0.00, 0.000, 0.000, 0.000, 18:58:17.435, 1565909897435
180, 0.00, 0.00, -7773.76, -52344.41, -5400.16, 0.00, 0.00, 0.00, 0.000, 0.000, 0.000, 18:58:17.442, 1565909897442
181, 0.00, 0.00, -7789.96, -52361.98, -5406.82, 0.00, 0.00, 0.00, 0.000, 0.000, 0.000, 18:58:17.443, 1565909897443
182, 0.00, 0.00, -7766.76, -52346.31, -5393.45, 0.00, 0.00, 0.00, 0.000, 0.000, 0.000, 18:58:17.451, 1565909897451
183, 0.00, 0.00, -7736.41, -52316.22, -5374.23, 0.00, 0.00, 0.00, 0.000, 0.000, 0.000, 18:58:17.452, 1565909897452
184, 0.00, 0.00, -7766.09, -52336.54, -5392.51, 0.00, 0.00, 0.00, 0.000, 0.000, 0.000, 18:58:17.458, 1565909897458
185, 0.00, 0.00, -7804.20, -52369.55, -5412.61, 0.00, 0.00, 0.00, 0.256, 0.132, 0.934, 18:58:17.459, 1565909897459
186, 0.00, 0.00, -7798.86, -52366.87, -5406.64, 0.00, 0.00, 0.00, 0.000, 0.000, 0.000, 18:58:17.465, 1565909897465
187, 0.00, 0.00, -7771.79, -52342.26, -5392.92, 0.00, 0.00, 0.00, 0.000, 0.000, 0.000, 18:58:17.465, 1565909897465
188, 0.00, 0.00, -7788.40, -52351.56, -5404.92, 0.00, 0.00, 0.00, 0.000, 0.000, 0.000, 18:58:17.473, 1565909897473
189, 0.00, 0.00, -7816.78, -52377.09, -5418.49, 0.00, 0.00, 0.00, 0.000, 0.000, 0.000, 18:58:17.473, 1565909897473
190, 0.00, 0.00, -7814.50, -52378.83, -5417.37, 0.00, 0.00, 0.00, 0.000, 0.000, 0.000, 18:58:17.481, 1565909897481
191, 0.00, 0.00, -7775.39, -52348.48, -5396.60, 0.00, 0.00, 0.00, 0.000, 0.000, 0.000, 18:58:17.481, 1565909897481
192, 0.00, 0.00, -7776.48, -52344.52, -5401.39, 0.00, 0.00, 0.00, 0.000, 0.000, 0.000, 18:58:17.488, 1565909897488
193, 0.00, 0.00, -7803.37, -52366.58, -5412.41, 0.00, 0.00, 0.00, 0.000, 0.000, 0.000, 18:58:17.488, 1565909897488
194, 0.00, 0.00, -7798.50, -52367.77, -5405.08, 0.00, 0.00, 0.00, 0.000, 0.000, 0.000, 18:58:17.495, 1565909897495
195, 0.00, 0.00, -7763.90, -52339.16, -5386.37, 0.00, 0.00, 0.00, 0.258, 0.128, 0.936, 18:58:17.503, 1565909897503
196, 0.00, 0.00, -7750.31, -52323.64, -5384.04, 0.00, 0.00, 0.00, 0.000, 0.000, 0.000, 18:58:17.503, 1565909897503
197, 0.00, 0.00, -7781.69, -52348.66, -5398.88, 0.00, 0.00, 0.00, 0.000, 0.000, 0.000, 18:58:17.511, 1565909897511
198, 0.00, 0.00, -7787.62, -52356.52, -5401.57, 0.00, 0.00, 0.00, 0.000, 0.000, 0.000, 18:58:17.511, 1565909897511
199, 0.00, 0.00, -7756.64, -52334.08, -5382.84, 0.00, 0.00, 0.00, 0.000, 0.000, 0.000, 18:58:17.518, 1565909897518
200, 0.00, 0.00, -7732.97, -52313.72, -5371.93, 0.00, 0.00, 0.00, 0.000, 0.000, 0.000, 18:58:17.518, 1565909897518
201, 0.00, 0.00, -7762.27, -52334.86, -5385.85, 0.00, 0.00, 0.00, 0.000, 0.000, 0.000, 18:58:17.525, 1565909897525
202, 0.00, 0.00, -7772.66, -52343.40, -5392.54, 0.00, 0.00, 0.00, 0.000, 0.000, 0.000, 18:58:17.525, 1565909897525
203, 0.00, 0.00, -7770.29, -52340.77, -5387.93, 0.00, 0.00, 0.00, 0.000, 0.000, 0.000, 18:58:17.533, 1565909897533
204, 0.00, 0.00, -7771.63, -52338.95, -5390.77, 0.00, 0.00, 0.00, 0.258, 0.130, 0.936, 18:58:17.533, 1565909897533
205, 0.00, 0.00, -7805.56, -52364.32, -5409.55, 0.00, 0.00, 0.00, 0.000, 0.000, 0.000, 18:58:17.541, 1565909897541
206, 0.00, 0.00, -7819.47, -52379.66, -5416.39, 0.00, 0.00, 0.00, 0.000, 0.000, 0.000, 18:58:17.541, 1565909897541
207, 0.00, 0.00, -7802.08, -52367.21, -5407.36, 0.00, 0.00, 0.00, 0.000, 0.000, 0.000, 18:58:17.548, 1565909897548
208, 0.00, 0.00, -7769.49, -52344.36, -5395.64, 0.00, 0.00, 0.00, 0.000, 0.000, 0.000, 18:58:17.548, 1565909897548
209, 0.00, 0.00, -7789.05, -52355.29, -5406.53, 0.00, 0.00, 0.00, 0.000, 0.000, 0.000, 18:58:17.555, 1565909897555
210, 0.00, 0.00, -7809.41, -52372.73, -5413.26, 0.00, 0.00, 0.00, 0.000, 0.000, 0.000, 18:58:17.563, 1565909897563
211, 0.00, 0.00, -7795.73, -52366.13, -5406.06, 0.00, 0.00, 0.00, 0.000, 0.000, 0.000, 18:58:17.563, 1565909897563
212, 0.00, 0.00, -7759.23, -52338.08, -5390.44, 0.00, 0.00, 0.00, 0.000, 0.000, 0.000, 18:58:17.571, 1565909897571
213, 0.00, 0.00, -7773.60, -52345.41, -5402.33, 0.00, 0.00, 0.00, 0.000, 0.000, 0.000, 18:58:17.571, 1565909897571
214, 0.00, 0.00, -7801.05, -52368.91, -5414.26, 0.00, 0.00, 0.00, 0.258, 0.136, 0.940, 18:58:17.577, 1565909897577
215, 0.00, 0.00, -7796.09, -52368.50, -5409.61, 0.00, 0.00, 0.00, 0.000, 0.000, 0.000, 18:58:17.577, 1565909897577
216, 0.00, 0.00, -7757.22, -52335.96, -5387.64, 0.00, 0.00, 0.00, 0.000, 0.000, 0.000, 18:58:17.585, 1565909897585
217, 0.00, 0.00, -7760.73, -52335.76, -5396.05, 0.00, 0.00, 0.00, 0.000, 0.000, 0.000, 18:58:17.586, 1565909897586
218, 0.00, 0.00, -7794.43, -52363.90, -5412.85, 0.00, 0.00, 0.00, 0.000, 0.000, 0.000, 18:58:17.594, 1565909897594
219, 0.00, 0.00, -7791.57, -52365.57, -5409.17, 0.00, 0.00, 0.00, 0.000, 0.000, 0.000, 18:58:17.594, 1565909897594
220, 0.00, 0.00, -7754.47, -52340.39, -5392.40, 0.00, 0.00, 0.00, 0.000, 0.000, 0.000, 18:58:17.601, 1565909897601
221, 0.00, 0.00, -7740.88, -52328.70, -5394.01, 0.00, 0.00, 0.00, 0.000, 0.000, 0.000, 18:58:17.601, 1565909897601
222, 0.00, 0.00, -7772.35, -52347.40, -5405.19, 0.00, 0.00, 0.00, 0.000, 0.000, 0.000, 18:58:17.608, 1565909897608
223, 0.00, 0.00, -7783.23, -52355.81, -5404.52, 0.00, 0.00, 0.00, 0.000, 0.000, 0.000, 18:58:17.608, 1565909897608
224, 0.00, 0.00, -7762.83, -52341.95, -5394.01, 0.00, 0.00, 0.00, 0.254, 0.132, 0.938, 18:58:17.615, 1565909897615
225, 0.00, 0.00, -7748.88, -52327.42, -5390.06, 0.00, 0.00, 0.00, 0.000, 0.000, 0.000, 18:58:17.623, 1565909897623
226, 0.00, 0.00, -7792.96, -52359.18, -5410.69, 0.00, 0.00, 0.00, 0.000, 0.000, 0.000, 18:58:17.623, 1565909897623
227, 0.00, 0.00, -7815.09, -52381.36, -5421.21, 0.00, 0.00, 0.00, 0.000, 0.000, 0.000, 18:58:17.630, 1565909897630
228, 0.00, 0.00, -7787.17, -52364.17, -5410.64, 0.00, 0.00, 0.00, 0.000, 0.000, 0.000, 18:58:17.630, 1565909897630
229, 0.00, 0.00, -7753.57, -52335.67, -5399.11, 0.00, 0.00, 0.00, 0.000, 0.000, 0.000, 18:58:17.639, 1565909897639
230, 0.00, 0.00, -7776.15, -52350.58, -5411.94, 0.00, 0.00, 0.00, 0.000, 0.000, 0.000, 18:58:17.639, 1565909897639
231, 0.00, 0.00, -7798.08, -52368.66, -5419.34, 0.00, 0.00, 0.00, 0.000, 0.000, 0.000, 18:58:17.645, 1565909897645
232, 0.00, 0.00, -7791.10, -52367.01, -5415.45, 0.00, 0.00, 0.00, 0.000, 0.000, 0.000, 18:58:17.645, 1565909897645
233, 0.00, 0.00, -7759.88, -52340.34, -5399.56, 0.00, 0.00, 0.00, 0.000, 0.000, 0.000, 18:58:17.654, 1565909897654
234, 0.00, 0.00, -7780.06, -52349.55, -5407.45, 0.00, 0.00, 0.00, 0.256, 0.128, 0.940, 18:58:17.654, 1565909897654
235, 0.00, 0.00, -7804.20, -52370.09, -5414.78, 0.00, 0.00, 0.00, 0.000, 0.000, 0.000, 18:58:17.662, 1565909897662
236, 0.00, 0.00, -7796.09, -52370.11, -5414.17, 0.00, 0.00, 0.00, 0.000, 0.000, 0.000, 18:58:17.662, 1565909897662
237, 0.00, 0.00, -7756.14, -52341.21, -5397.92, 0.00, 0.00, 0.00, 0.000, 0.000, 0.000, 18:58:17.668, 1565909897668
238, 0.00, 0.00, -7768.77, -52342.96, -5403.94, 0.00, 0.00, 0.00, 0.000, 0.000, 0.000, 18:58:17.668, 1565909897668
239, 0.00, 0.00, -7798.81, -52366.69, -5415.81, 0.00, 0.00, 0.00, 0.000, 0.000, 0.000, 18:58:17.675, 1565909897675
240, 0.00, 0.00, -7798.46, -52371.23, -5416.03, 0.00, 0.00, 0.00, 0.000, 0.000, 0.000, 18:58:17.675, 1565909897675
241, 0.00, 0.00, -7765.76, -52347.65, -5400.61, 0.00, 0.00, 0.00, 0.000, 0.000, 0.000, 18:58:17.683, 1565909897683
242, 0.00, 0.00, -7760.64, -52339.60, -5400.20, 0.00, 0.00, 0.00, 0.000, 0.000, 0.000, 18:58:17.691, 1565909897691
243, 0.00, 0.00, -7787.64, -52361.15, -5412.07, 0.00, 0.00, 0.00, 0.000, 0.000, 0.000, 18:58:17.691, 1565909897691
244, 0.00, 0.00, -7785.81, -52362.63, -5407.51, 0.00, 0.00, 0.00, 0.258, 0.130, 0.938, 18:58:17.698, 1565909897698
245, 0.00, 0.00, -7749.48, -52337.23, -5391.06, 0.00, 0.00, 0.00, 0.000, 0.000, 0.000, 18:58:17.698, 1565909897698
246, 0.00, 0.00, -7735.78, -52320.49, -5385.25, 0.00, 0.00, 0.00, 0.000, 0.000, 0.000, 18:58:17.706, 1565909897706
247, 0.00, 0.00, -7768.68, -52342.80, -5400.38, 0.00, 0.00, 0.00, 0.000, 0.000, 0.000, 18:58:17.706, 1565909897706
248, 0.00, 0.00, -7785.92, -52358.76, -5407.00, 0.00, 0.00, 0.00, 0.000, 0.000, 0.000, 18:58:17.713, 1565909897713
249, 0.00, 0.00, -7766.87, -52344.05, -5392.76, 0.00, 0.00, 0.00, 0.000, 0.000, 0.000, 18:58:17.714, 1565909897714
250, 0.00, 0.00, -7757.11, -52332.56, -5393.16, 0.00, 0.00, 0.00, 0.000, 0.000, 0.000, 18:58:17.721, 1565909897721
251, 0.00, 0.00, -7792.31, -52359.25, -5412.63, 0.00, 0.00, 0.00, 0.000, 0.000, 0.000, 18:58:17.721, 1565909897721
252, 0.00, 0.00, -7802.57, -52370.89, -5415.83, 0.00, 0.00, 0.00, 0.000, 0.000, 0.000, 18:58:17.728, 1565909897728
253, 0.00, 0.00, -7771.23, -52353.98, -5402.24, 0.00, 0.00, 0.00, 0.000, 0.000, 0.000, 18:58:17.728, 1565909897728
254, 0.00, 0.00, -7741.01, -52326.95, -5387.91, 0.00, 0.00, 0.00, 0.262, 0.138, 0.936, 18:58:17.736, 1565909897736
255, 0.00, 0.00, -7784.67, -52350.78, -5406.33, 0.00, 0.00, 0.00, 0.000, 0.000, 0.000, 18:58:17.736, 1565909897736
0, 0.00, 0.00, -7819.69, -52381.13, -5421.71, 0.00, 0.00, 0.00, 0.000, 0.000, 0.000, 18:58:17.743, 1565909897743
1, 0.00, 0.00, -7802.70, -52372.64, -5413.84, 0.00, 0.00, 0.00, 0.000, 0.000, 0.000, 18:58:17.750, 1565909897750
2, 0.00, 0.00, -7767.72, -52344.59, -5398.62, 0.00, 0.00, 0.00, 0.000, 0.000, 0.000, 18:58:17.750, 1565909897750
3, 0.00, 0.00, -7783.12, -52352.97, -5409.48, 0.00, 0.00, 0.00, 0.000, 0.000, 0.000, 18:58:17.758, 1565909897758
4, 0.00, 0.00, -7802.17, -52372.01, -5417.55, 0.00, 0.00, 0.00, 0.000, 0.000, 0.000, 18:58:17.758, 1565909897758
5, 0.00, 0.00, -7785.20, -52363.25, -5408.27, 0.00, 0.00, 0.00, 0.000, 0.000, 0.000, 18:58:17.766, 1565909897766
6, 0.00, 0.00, -7744.28, -52332.45, -5389.65, 0.00, 0.00, 0.00, 0.000, 0.000, 0.000, 18:58:17.766, 1565909897766
7, 0.00, 0.00, -7752.17, -52334.37, -5396.16, 0.00, 0.00, 0.00, 0.258, 0.138, 0.938, 18:58:17.774, 1565909897774
8, 0.00, 0.00, -7791.91, -52363.45, -5411.20, 0.00, 0.00, 0.00, 0.000, 0.000, 0.000, 18:58:17.774, 1565909897774
9, 0.00, 0.00, -7807.67, -52376.66, -5416.43, 0.00, 0.00, 0.00, 0.000, 0.000, 0.000, 18:58:17.780, 1565909897780
10, 0.00, 0.00, -7774.88, -52353.35, -5400.83, 0.00, 0.00, 0.00, 0.000, 0.000, 0.000, 18:58:17.780, 1565909897780
11, 0.00, 0.00, -7767.10, -52345.19, -5402.22, 0.00, 0.00, 0.00, 0.000, 0.000, 0.000, 18:58:17.788, 1565909897788
12, 0.00, 0.00, -7789.96, -52364.64, -5412.83, 0.00, 0.00, 0.00, 0.000, 0.000, 0.000, 18:58:17.788, 1565909897788
13, 0.00, 0.00, -7785.43, -52362.49, -5408.43, 0.00, 0.00, 0.00, 0.000, 0.000, 0.000, 18:58:17.796, 1565909897796
14, 0.00, 0.00, -7753.91, -52340.79, -5392.87, 0.00, 0.00, 0.00, 0.000, 0.000, 0.000, 18:58:17.796, 1565909897796
15, 0.00, 0.00, -7748.23, -52335.51, -5395.11, 0.00, 0.00, 0.00, 0.000, 0.000, 0.000, 18:58:17.803, 1565909897803
16, 0.00, 0.00, -7792.85, -52364.39, -5413.39, 0.00, 0.00, 0.00, 0.000, 0.000, 0.000, 18:58:17.810, 1565909897810
17, 0.00, 0.00, -7813.39, -52380.57, -5418.91, 0.00, 0.00, 0.00, 0.262, 0.142, 0.936, 18:58:17.810, 1565909897810
18, 0.00, 0.00, -7792.69, -52367.77, -5408.54, 0.00, 0.00, 0.00, 0.000, 0.000, 0.000, 18:58:17.818, 1565909897818
19, 0.00, 0.00, -7768.62, -52346.62, -5402.17, 0.00, 0.00, 0.00, 0.000, 0.000, 0.000, 18:58:17.818, 1565909897818
20, 0.00, 0.00, -7793.32, -52363.07, -5415.31, 0.00, 0.00, 0.00, 0.000, 0.000, 0.000, 18:58:17.826, 1565909897826
21, 0.00, 0.00, -7799.62, -52373.20, -5415.51, 0.00, 0.00, 0.00, 0.000, 0.000, 0.000, 18:58:17.826, 1565909897826
22, 0.00, 0.00, -7771.97, -52354.94, -5400.05, 0.00, 0.00, 0.00, 0.000, 0.000, 0.000, 18:58:17.833, 1565909897833
23, 0.00, 0.00, -7742.78, -52328.92, -5387.31, 0.00, 0.00, 0.00, 0.000, 0.000, 0.000, 18:58:17.833, 1565909897833
24, 0.00, 0.00, -7771.57, -52345.13, -5399.85, 0.00, 0.00, 0.00, 0.000, 0.000, 0.000, 18:58:17.840, 1565909897840
25, 0.00, 0.00, -7805.25, -52374.07, -5414.75, 0.00, 0.00, 0.00, 0.000, 0.000, 0.000, 18:58:17.841, 1565909897841
26, 0.00, 0.00, -7792.85, -52369.44, -5410.82, 0.00, 0.00, 0.00, 0.000, 0.000, 0.000, 18:58:17.849, 1565909897849
27, 0.00, 0.00, -7756.70, -52342.35, -5397.14, 0.00, 0.00, 0.00, 0.262, 0.138, 0.936, 18:58:17.849, 1565909897849
28, 0.00, 0.00, -7767.70, -52343.00, -5399.60, 0.00, 0.00, 0.00, 0.000, 0.000, 0.000, 18:58:17.857, 1565909897857
29, 0.00, 0.00, -7800.80, -52368.75, -5412.90, 0.00, 0.00, 0.00, 0.000, 0.000, 0.000, 18:58:17.857, 1565909897857
30, 0.00, 0.00, -7797.20, -52370.65, -5411.27, 0.00, 0.00, 0.00, 0.000, 0.000, 0.000, 18:58:17.863, 1565909897863
31, 0.00, 0.00, -7755.59, -52339.00, -5392.51, 0.00, 0.00, 0.00, 0.000, 0.000, 0.000, 18:58:17.870, 1565909897870
32, 0.00, 0.00, -7754.51, -52334.39, -5397.16, 0.00, 0.00, 0.00, 0.000, 0.000, 0.000, 18:58:17.870, 1565909897870
33, 0.00, 0.00, -7787.01, -52358.80, -5410.49, 0.00, 0.00, 0.00, 0.000, 0.000, 0.000, 18:58:17.878, 1565909897878
34, 0.00, 0.00, -7792.82, -52366.31, -5410.60, 0.00, 0.00, 0.00, 0.000, 0.000, 0.000, 18:58:17.878, 1565909897878
35, 0.00, 0.00, -7766.72, -52347.76, -5400.32, 0.00, 0.00, 0.00, 0.000, 0.000, 0.000, 18:58:17.886, 1565909897886
36, 0.00, 0.00, -7769.09, -52346.42, -5407.47, 0.00, 0.00, 0.00, 0.000, 0.000, 0.000, 18:58:17.886, 1565909897886
37, 0.00, 0.00, -7796.29, -52365.57, -5415.40, 0.00, 0.00, 0.00, 0.258, 0.140, 0.936, 18:58:17.893, 1565909897893
38, 0.00, 0.00, -7796.56, -52369.24, -5412.70, 0.00, 0.00, 0.00, 0.000, 0.000, 0.000, 18:58:17.893, 1565909897893
39, 0.00, 0.00, -7768.13, -52350.45, -5400.58, 0.00, 0.00, 0.00, 0.000, 0.000, 0.000, 18:58:17.901, 1565909897901
40, 0.00, 0.00, -7755.74, -52336.16, -5397.86, 0.00, 0.00, 0.00, 0.000, 0.000, 0.000, 18:58:17.901, 1565909897901
41, 0.00, 0.00, -7791.75, -52360.50, -5413.03, 0.00, 0.00, 0.00, 0.000, 0.000, 0.000, 18:58:17.909, 1565909897909
42, 0.00, 0.00, -7799.02, -52371.30, -5417.10, 0.00, 0.00, 0.00, 0.000, 0.000, 0.000, 18:58:17.909, 1565909897909
43, 0.00, 0.00, -7770.56, -52351.65, -5403.22, 0.00, 0.00, 0.00, 0.000, 0.000, 0.000, 18:58:17.915, 1565909897915
44, 0.00, 0.00, -7749.04, -52329.70, -5394.12, 0.00, 0.00, 0.00, 0.000, 0.000, 0.000, 18:58:17.916, 1565909897916
45, 0.00, 0.00, -7782.36, -52353.73, -5412.27, 0.00, 0.00, 0.00, 0.000, 0.000, 0.000, 18:58:17.922, 1565909897922
46, 0.00, 0.00, -7798.12, -52371.84, -5418.53, 0.00, 0.00, 0.00, 0.000, 0.000, 0.000, 18:58:17.923, 1565909897923
47, 0.00, 0.00, -7771.41, -52354.54, -5403.82, 0.00, 0.00, 0.00, 0.260, 0.134, 0.932, 18:58:17.931, 1565909897931
48, 0.00, 0.00, -7740.54, -52327.71, -5391.42, 0.00, 0.00, 0.00, 0.000, 0.000, 0.000, 18:58:17.939, 1565909897939
49, 0.00, 0.00, -7766.43, -52344.34, -5404.81, 0.00, 0.00, 0.00, 0.000, 0.000, 0.000, 18:58:17.939, 1565909897939
50, 0.00, 0.00, -7793.83, -52368.10, -5414.69, 0.00, 0.00, 0.00, 0.000, 0.000, 0.000, 18:58:17.945, 1565909897945
51, 0.00, 0.00, -7778.97, -52363.03, -5410.15, 0.00, 0.00, 0.00, 0.000, 0.000, 0.000, 18:58:17.945, 1565909897945
52, 0.00, 0.00, -7742.02, -52331.33, -5390.26, 0.00, 0.00, 0.00, 0.000, 0.000, 0.000, 18:58:17.953, 1565909897953
53, 0.00, 0.00, -7765.08, -52338.93, -5398.15, 0.00, 0.00, 0.00, 0.000, 0.000, 0.000, 18:58:17.953, 1565909897953
54, 0.00, 0.00, -7797.54, -52367.99, -5414.51, 0.00, 0.00, 0.00, 0.000, 0.000, 0.000, 18:58:17.961, 1565909897961
55, 0.00, 0.00, -7792.51, -52365.38, -5407.15, 0.00, 0.00, 0.00, 0.000, 0.000, 0.000, 18:58:17.961, 1565909897961
56, 0.00, 0.00, -7754.45, -52335.27, -5387.17, 0.00, 0.00, 0.00, 0.000, 0.000, 0.000, 18:58:17.969, 1565909897969
57, 0.00, 0.00, -7758.49, -52331.91, -5391.42, 0.00, 0.00, 0.00, 0.260, 0.138, 0.936, 18:58:17.969, 1565909897969
58, 0.00, 0.00, -7786.36, -52355.61, -5403.11, 0.00, 0.00, 0.00, 0.000, 0.000, 0.000, 18:58:17.976, 1565909897976
59, 0.00, 0.00, -7792.02, -52363.56, -5406.60, 0.00, 0.00, 0.00, 0.000, 0.000, 0.000, 18:58:17.976, 1565909897976
60, 0.00, 0.00, -7764.15, -52342.73, -5390.82, 0.00, 0.00, 0.00, 0.000, 0.000, 0.000, 18:58:17.984, 1565909897984
61, 0.00, 0.00, -7767.50, -52341.75, -5395.85, 0.00, 0.00, 0.00, 0.000, 0.000, 0.000, 18:58:17.984, 1565909897984
62, 0.00, 0.00, -7814.86, -52383.90, -5429.40, 0.00, 0.00, 0.00, 0.000, 0.000, 0.000, 18:58:17.991, 1565909897991
63, 0.00, 0.00, -7818.37, -52394.95, -5438.69, 0.00, 0.00, 0.00, 0.000, 0.000, 0.000, 18:58:17.998, 1565909897998
64, 0.00, 0.00, -7777.69, -52365.75, -5417.95, 0.00, 0.00, 0.00, 0.000, 0.000, 0.000, 18:58:17.998, 1565909897998
65, 0.00, 0.00, -7755.21, -52343.87, -5408.27, 0.00, 0.00, 0.00, 0.000, 0.000, 0.000, 18:58:18.005, 1565909898005
66, 0.00, 0.00, -7782.97, -52363.81, -5421.24, 0.00, 0.00, 0.00, 0.000, 0.000, 0.000, 18:58:18.005, 1565909898005
67, 0.00, 0.00, -7793.20, -52374.49, -5422.64, 0.00, 0.00, 0.00, 0.254, 0.138, 0.940, 18:58:18.013, 1565909898013
68, 0.00, 0.00, -7766.94, -52356.34, -5406.57, 0.00, 0.00, 0.00, 0.000, 0.000, 0.000, 18:58:18.014, 1565909898014
69, 0.00, 0.00, -7743.14, -52333.68, -5395.44, 0.00, 0.00, 0.00, 0.000, 0.000, 0.000, 18:58:18.021, 1565909898021
70, 0.00, 0.00, -7770.83, -52353.55, -5409.26, 0.00, 0.00, 0.00, 0.000, 0.000, 0.000, 18:58:18.022, 1565909898022
71, 0.00, 0.00, -7788.62, -52368.84, -5413.19, 0.00, 0.00, 0.00, 0.000, 0.000, 0.000, 18:58:18.028, 1565909898028
72, 0.00, 0.00, -7769.33, -52357.11, -5401.34, 0.00, 0.00, 0.00, 0.000, 0.000, 0.000, 18:58:18.028, 1565909898028
73, 0.00, 0.00, -7734.19, -52329.30, -5386.64, 0.00, 0.00, 0.00, 0.000, 0.000, 0.000, 18:58:18.036, 1565909898036
74, 0.00, 0.00, -7754.07, -52339.02, -5397.81, 0.00, 0.00, 0.00, 0.000, 0.000, 0.000, 18:58:18.036, 1565909898036
75, 0.00, 0.00, -7781.51, -52358.78, -5404.72, 0.00, 0.00, 0.00, 0.000, 0.000, 0.000, 18:58:18.044, 1565909898044
76, 0.00, 0.00, -7784.15, -52361.91, -5405.79, 0.00, 0.00, 0.00, 0.258, 0.138, 0.946, 18:58:18.044, 1565909898044
77, 0.00, 0.00, -7759.12, -52341.17, -5393.74, 0.00, 0.00, 0.00, 0.000, 0.000, 0.000, 18:58:18.051, 1565909898051
78, 0.00, 0.00, -7780.62, -52355.34, -5409.66, 0.00, 0.00, 0.00, 0.000, 0.000, 0.000, 18:58:18.058, 1565909898058
79, 0.00, 0.00, -7806.73, -52377.82, -5420.95, 0.00, 0.00, 0.00, 0.000, 0.000, 0.000, 18:58:18.058, 1565909898058
80, 0.00, 0.00, -7800.51, -52377.49, -5418.31, 0.00, 0.00, 0.00, 0.000, 0.000, 0.000, 18:58:18.066, 1565909898066
81, 0.00, 0.00, -7760.10, -52346.40, -5398.53, 0.00, 0.00, 0.00, 0.000, 0.000, 0.000, 18:58:18.067, 1565909898067
82, 0.00, 0.00, -7759.27, -52341.44, -5399.89, 0.00, 0.00, 0.00, 0.000, 0.000, 0.000, 18:58:18.074, 1565909898074
83, 0.00, 0.00, -7786.39, -52364.93, -5411.94, 0.00, 0.00, 0.00, 0.000, 0.000, 0.000, 18:58:18.074, 1565909898074
84, 0.00, 0.00, -7787.53, -52367.70, -5408.63, 0.00, 0.00, 0.00, 0.000, 0.000, 0.000, 18:58:18.081, 1565909898081
85, 0.00, 0.00, -7763.63, -52348.30, -5396.00, 0.00, 0.00, 0.00, 0.000, 0.000, 0.000, 18:58:18.081, 1565909898081
86, 0.00, 0.00, -7765.38, -52344.97, -5401.32, 0.00, 0.00, 0.00, 0.258, 0.140, 0.944, 18:58:18.089, 1565909898089
87, 0.00, 0.00, -7801.59, -52375.48, -5421.13, 0.00, 0.00, 0.00, 0.000, 0.000, 0.000, 18:58:18.089, 1565909898089
88, 0.00, 0.00, -7796.69, -52376.77, -5416.16, 0.00, 0.00, 0.00, 0.000, 0.000, 0.000, 18:58:18.096, 1565909898096
89, 0.00, 0.00, -7762.31, -52349.10, -5396.58, 0.00, 0.00, 0.00, 0.000, 0.000, 0.000, 18:58:18.097, 1565909898097
90, 0.00, 0.00, -7754.02, -52337.86, -5397.19, 0.00, 0.00, 0.00, 0.000, 0.000, 0.000, 18:58:18.103, 1565909898103
91, 0.00, 0.00, -7790.34, -52364.01, -5415.65, 0.00, 0.00, 0.00, 0.000, 0.000, 0.000, 18:58:18.104, 1565909898104
92, 0.00, 0.00, -7802.86, -52377.45, -5419.47, 0.00, 0.00, 0.00, 0.000, 0.000, 0.000, 18:58:18.110, 1565909898110
93, 0.00, 0.00, -7779.17, -52362.22, -5406.91, 0.00, 0.00, 0.00, 0.000, 0.000, 0.000, 18:58:18.118, 1565909898118
94, 0.00, 0.00, -7749.06, -52333.72, -5391.87, 0.00, 0.00, 0.00, 0.000, 0.000, 0.000, 18:58:18.118, 1565909898118
95, 0.00, 0.00, -7780.60, -52354.98, -5407.60, 0.00, 0.00, 0.00, 0.000, 0.000, 0.000, 18:58:18.126, 1565909898126
96, 0.00, 0.00, -7802.01, -52373.53, -5414.06, 0.00, 0.00, 0.00, 0.258, 0.136, 0.940, 18:58:18.126, 1565909898126
97, 0.00, 0.00, -7785.60, -52365.04, -5407.38, 0.00, 0.00, 0.00, 0.000, 0.000, 0.000, 18:58:18.133, 1565909898133
98, 0.00, 0.00, -7750.87, -52337.77, -5394.08, 0.00, 0.00, 0.00, 0.000, 0.000, 0.000, 18:58:18.133, 1565909898133
99, 0.00, 0.00, -7773.47, -52352.10, -5409.37, 0.00, 0.00, 0.00, 0.000, 0.000, 0.000, 18:58:18.140, 1565909898140
100, 0.00, 0.00, -7796.09, -52369.35, -5413.66, 0.00, 0.00, 0.00, 0.000, 0.000, 0.000, 18:58:18.141, 1565909898141
101, 0.00, 0.00, -7784.08, -52362.43, -5404.99, 0.00, 0.00, 0.00, 0.000, 0.000, 0.000, 18:58:18.148, 1565909898148
102, 0.00, 0.00, -7747.76, -52333.61, -5386.99, 0.00, 0.00, 0.00, 0.000, 0.000, 0.000, 18:58:18.149, 1565909898149
103, 0.00, 0.00, -7765.51, -52342.80, -5399.20, 0.00, 0.00, 0.00, 0.000, 0.000, 0.000, 18:58:18.157, 1565909898157
104, 0.00, 0.00, -7795.30, -52367.39, -5409.77, 0.00, 0.00, 0.00, 0.000, 0.000, 0.000, 18:58:18.157, 1565909898157
105, 0.00, 0.00, -7792.04, -52369.18, -5407.31, 0.00, 0.00, 0.00, 0.000, 0.000, 0.000, 18:58:18.163, 1565909898163
106, 0.00, 0.00, -7754.36, -52339.98, -5390.61, 0.00, 0.00, 0.00, 0.260, 0.134, 0.944, 18:58:18.163, 1565909898163
107, 0.00, 0.00, -7752.95, -52336.92, -5396.43, 0.00, 0.00, 0.00, 0.000, 0.000, 0.000, 18:58:18.170, 1565909898170
108, 0.00, 0.00, -7782.90, -52362.91, -5413.53, 0.00, 0.00, 0.00, 0.000, 0.000, 0.000, 18:58:18.170, 1565909898170
109, 0.00, 0.00, -7786.03, -52368.77, -5411.56, 0.00, 0.00, 0.00, 0.000, 0.000, 0.000, 18:58:18.178, 1565909898178
110, 0.00, 0.00, -7760.37, -52345.14, -5393.90, 0.00, 0.00, 0.00, 0.000, 0.000, 0.000, 18:58:18.187, 1565909898187
111, 0.00, 0.00, -7752.23, -52334.04, -5392.22, 0.00, 0.00, 0.00, 0.000, 0.000, 0.000, 18:58:18.187, 1565909898187
112, 0.00, 0.00, -7777.67, -52355.76, -5403.49, 0.00, 0.00, 0.00, 0.000, 0.000, 0.000, 18:58:18.193, 1565909898193
113, 0.00, 0.00, -7792.56, -52369.22, -5405.95, 0.00, 0.00, 0.00, 0.000, 0.000, 0.000, 18:58:18.193, 1565909898193
114, 0.00, 0.00, -7778.67, -52359.14, -5397.86, 0.00, 0.00, 0.00, 0.000, 0.000, 0.000, 18:58:18.201, 1565909898201
115, 0.00, 0.00, -7766.05, -52345.35, -5394.68, 0.00, 0.00, 0.00, 0.000, 0.000, 0.000, 18:58:18.201, 1565909898201
116, 0.00, 0.00, -7800.92, -52368.91, -5412.27, 0.00, 0.00, 0.00, 0.262, 0.134, 0.938, 18:58:18.209, 1565909898209
117, 0.00, 0.00, -7809.05, -52382.63, -5417.03, 0.00, 0.00, 0.00, 0.000, 0.000, 0.000, 18:58:18.209, 1565909898209
118, 0.00, 0.00, -7780.66, -52363.90, -5403.29, 0.00, 0.00, 0.00, 0.000, 0.000, 0.000, 18:58:18.216, 1565909898216
119, 0.00, 0.00, -7755.70, -52339.60, -5393.56, 0.00, 0.00, 0.00, 0.000, 0.000, 0.000, 18:58:18.216, 1565909898216
120, 0.00, 0.00, -7791.71, -52365.93, -5413.48, 0.00, 0.00, 0.00, 0.000, 0.000, 0.000, 18:58:18.224, 1565909898224
121, 0.00, 0.00, -7812.25, -52384.29, -5420.61, 0.00, 0.00, 0.00, 0.000, 0.000, 0.000, 18:58:18.224, 1565909898224
122, 0.00, 0.00, -7791.95, -52370.36, -5407.58, 0.00, 0.00, 0.00, 0.000, 0.000, 0.000, 18:58:18.232, 1565909898232
123, 0.00, 0.00, -7755.81, -52341.46, -5392.22, 0.00, 0.00, 0.00, 0.000, 0.000, 0.000, 18:58:18.232, 1565909898232
124, 0.00, 0.00, -7773.20, -52350.33, -5401.32, 0.00, 0.00, 0.00, 0.000, 0.000, 0.000, 18:58:18.239, 1565909898239
125, 0.00, 0.00, -7787.28, -52363.95, -5405.55, 0.00, 0.00, 0.00, 0.000, 0.000, 0.000, 18:58:18.246, 1565909898246
126, 0.00, 0.00, -7770.61, -52352.52, -5394.68, 0.00, 0.00, 0.00, 0.260, 0.136, 0.936, 18:58:18.246, 1565909898246
127, 0.00, 0.00, -7744.10, -52327.06, -5377.81, 0.00, 0.00, 0.00, 0.000, 0.000, 0.000, 18:58:18.253, 1565909898253
128, 0.00, 0.00, -7770.16, -52346.75, -5399.06, 0.00, 0.00, 0.00, 0.000, 0.000, 0.000, 18:58:18.253, 1565909898253
129, 0.00, 0.00, -7791.10, -52369.31, -5412.94, 0.00, 0.00, 0.00, 0.000, 0.000, 0.000, 18:58:18.261, 1565909898261
130, 0.00, 0.00, -7779.21, -52360.01, -5402.01, 0.00, 0.00, 0.00, 0.000, 0.000, 0.000, 18:58:18.261, 1565909898261
131, 0.00, 0.00, -7749.98, -52337.88, -5388.78, 0.00, 0.00, 0.00, 0.000, 0.000, 0.000, 18:58:18.268, 1565909898268
132, 0.00, 0.00, -7758.29, -52339.34, -5396.87, 0.00, 0.00, 0.00, 0.000, 0.000, 0.000, 18:58:18.268, 1565909898268
133, 0.00, 0.00, -7794.34, -52369.75, -5415.09, 0.00, 0.00, 0.00, 0.000, 0.000, 0.000, 18:58:18.276, 1565909898276
134, 0.00, 0.00, -7801.05, -52378.34, -5418.15, 0.00, 0.00, 0.00, 0.000, 0.000, 0.000, 18:58:18.276, 1565909898276
135, 0.00, 0.00, -7771.10, -52354.02, -5400.02, 0.00, 0.00, 0.00, 0.262, 0.132, 0.940, 18:58:18.286, 1565909898286
136, 0.00, 0.00, -7755.70, -52339.74, -5398.82, 0.00, 0.00, 0.00, 0.000, 0.000, 0.000, 18:58:18.286, 1565909898286
137, 0.00, 0.00, -7776.73, -52358.04, -5410.51, 0.00, 0.00, 0.00, 0.000, 0.000, 0.000, 18:58:18.292, 1565909898292
138, 0.00, 0.00, -7781.85, -52364.48, -5406.98, 0.00, 0.00, 0.00, 0.000, 0.000, 0.000, 18:58:18.292, 1565909898292
139, 0.00, 0.00, -7757.08, -52343.25, -5388.45, 0.00, 0.00, 0.00, 0.000, 0.000, 0.000, 18:58:18.298, 1565909898298
140, 0.00, 0.00, -7740.57, -52328.38, -5385.38, 0.00, 0.00, 0.00, 0.000, 0.000, 0.000, 18:58:18.305, 1565909898305
141, 0.00, 0.00, -7775.68, -52355.92, -5407.07, 0.00, 0.00, 0.00, 0.000, 0.000, 0.000, 18:58:18.306, 1565909898306
142, 0.00, 0.00, -7791.97, -52369.00, -5412.63, 0.00, 0.00, 0.00, 0.000, 0.000, 0.000, 18:58:18.314, 1565909898314
143, 0.00, 0.00, -7766.31, -52348.14, -5394.35, 0.00, 0.00, 0.00, 0.000, 0.000, 0.000, 18:58:18.314, 1565909898314
144, 0.00, 0.00, -7745.28, -52327.33, -5383.91, 0.00, 0.00, 0.00, 0.000, 0.000, 0.000, 18:58:18.322, 1565909898322
145, 0.00, 0.00, -7779.61, -52352.88, -5405.41, 0.00, 0.00, 0.00, 0.262, 0.130, 0.940, 18:58:18.322, 1565909898322
146, 0.00, 0.00, -7809.97, -52382.81, -5423.29, 0.00, 0.00, 0.00, 0.000, 0.000, 0.000, 18:58:18.328, 1565909898328
147, 0.00, 0.00, -7794.43, -52374.74, -5415.13, 0.00, 0.00, 0.00, 0.000, 0.000, 0.000, 18:58:18.329, 1565909898329
148, 0.00, 0.00, -7757.22, -52344.48, -5397.92, 0.00, 0.00, 0.00, 0.000, 0.000, 0.000, 18:58:18.336, 1565909898336
149, 0.00, 0.00, -7770.23, -52350.73, -5405.93, 0.00, 0.00, 0.00, 0.000, 0.000, 0.000, 18:58:18.336, 1565909898336
150, 0.00, 0.00, -7789.98, -52368.66, -5412.30, 0.00, 0.00, 0.00, 0.000, 0.000, 0.000, 18:58:18.344, 1565909898344
151, 0.00, 0.00, -7776.33, -52363.45, -5405.79, 0.00, 0.00, 0.00, 0.000, 0.000, 0.000, 18:58:18.344, 1565909898344
152, 0.00, 0.00, -7735.83, -52331.24, -5385.38, 0.00, 0.00, 0.00, 0.000, 0.000, 0.000, 18:58:18.352, 1565909898352
153, 0.00, 0.00, -7750.89, -52336.70, -5393.36, 0.00, 0.00, 0.00, 0.000, 0.000, 0.000, 18:58:18.352, 1565909898352
154, 0.00, 0.00, -7784.22, -52362.60, -5405.90, 0.00, 0.00, 0.00, 0.000, 0.000, 0.000, 18:58:18.358, 1565909898358
155, 0.00, 0.00, -7790.95, -52372.80, -5411.83, 0.00, 0.00, 0.00, 0.262, 0.132, 0.936, 18:58:18.366, 1565909898366
156, 0.00, 0.00, -7753.82, -52342.89, -5390.46, 0.00, 0.00, 0.00, 0.000, 0.000, 0.000, 18:58:18.366, 1565909898366
157, 0.00, 0.00, -7756.19, -52338.75, -5396.31, 0.00, 0.00, 0.00, 0.000, 0.000, 0.000, 18:58:18.374, 1565909898374
158, 0.00, 0.00, -7782.30, -52362.36, -5409.88, 0.00, 0.00, 0.00, 0.000, 0.000, 0.000, 18:58:18.374, 1565909898374
159, 0.00, 0.00, -7780.69, -52364.28, -5404.67, 0.00, 0.00, 0.00, 0.000, 0.000, 0.000, 18:58:18.381, 1565909898381
160, 0.00, 0.00, -7752.01, -52343.92, -5390.64, 0.00, 0.00, 0.00, 0.000, 0.000, 0.000, 18:58:18.381, 1565909898381
161, 0.00, 0.00, -7745.88, -52334.98, -5392.43, 0.00, 0.00, 0.00, 0.000, 0.000, 0.000, 18:58:18.389, 1565909898389
162, 0.00, 0.00, -7783.57, -52361.53, -5409.77, 0.00, 0.00, 0.00, 0.000, 0.000, 0.000, 18:58:18.389, 1565909898389
163, 0.00, 0.00, -7794.37, -52373.20, -5411.67, 0.00, 0.00, 0.00, 0.000, 0.000, 0.000, 18:58:18.397, 1565909898397
164, 0.00, 0.00, -7770.65, -52356.43, -5396.96, 0.00, 0.00, 0.00, 0.000, 0.000, 0.000, 18:58:18.397, 1565909898397
165, 0.00, 0.00, -7759.99, -52344.03, -5396.09, 0.00, 0.00, 0.00, 0.266, 0.128, 0.938, 18:58:18.404, 1565909898404
166, 0.00, 0.00, -7788.87, -52364.57, -5410.84, 0.00, 0.00, 0.00, 0.000, 0.000, 0.000, 18:58:18.404, 1565909898404
167, 0.00, 0.00, -7802.81, -52379.32, -5415.85, 0.00, 0.00, 0.00, 0.000, 0.000, 0.000, 18:58:18.411, 1565909898411
168, 0.00, 0.00, -7778.90, -52364.10, -5403.74, 0.00, 0.00, 0.00, 0.000, 0.000, 0.000, 18:58:18.411, 1565909898411
169, 0.00, 0.00, -7747.81, -52338.98, -5392.07, 0.00, 0.00, 0.00, 0.000, 0.000, 0.000, 18:58:18.418, 1565909898418
170, 0.00, 0.00, -7771.46, -52354.42, -5403.89, 0.00, 0.00, 0.00, 0.000, 0.000, 0.000, 18:58:18.418, 1565909898418
171, 0.00, 0.00, -7789.81, -52371.03, -5408.16, 0.00, 0.00, 0.00, 0.000, 0.000, 0.000, 18:58:18.426, 1565909898426
172, 0.00, 0.00, -7778.52, -52366.43, -5404.12, 0.00, 0.00, 0.00, 0.000, 0.000, 0.000, 18:58:18.434, 1565909898434
173, 0.00, 0.00, -7744.92, -52335.80, -5386.35, 0.00, 0.00, 0.00, 0.000, 0.000, 0.000, 18:58:18.434, 1565909898434
174, 0.00, 0.00, -7762.96, -52343.85, -5394.79, 0.00, 0.00, 0.00, 0.000, 0.000, 0.000, 18:58:18.440, 1565909898440
175, 0.00, 0.00, -7788.69, -52368.97, -5408.52, 0.00, 0.00, 0.00, 0.262, 0.128, 0.936, 18:58:18.441, 1565909898441
176, 0.00, 0.00, -7779.73, -52361.91, -5400.23, 0.00, 0.00, 0.00, 0.000, 0.000, 0.000, 18:58:18.450, 1565909898450
177, 0.00, 0.00, -7739.22, -52331.22, -5382.32, 0.00, 0.00, 0.00, 0.000, 0.000, 0.000, 18:58:18.450, 1565909898450
178, 0.00, 0.00, -7741.03, -52331.07, -5388.74, 0.00, 0.00, 0.00, 0.000, 0.000, 0.000, 18:58:18.457, 1565909898457
179, 0.00, 0.00, -7775.14, -52357.89, -5403.33, 0.00, 0.00, 0.00, 0.000, 0.000, 0.000, 18:58:18.457, 1565909898457
180, 0.00, 0.00, -7783.32, -52365.87, -5404.03, 0.00, 0.00, 0.00, 0.000, 0.000, 0.000, 18:58:18.464, 1565909898464
181, 0.00, 0.00, -7755.56, -52344.25, -5389.94, 0.00, 0.00, 0.00, 0.000, 0.000, 0.000, 18:58:18.464, 1565909898464
182, 0.00, 0.00, -7768.44, -52350.27, -5401.66, 0.00, 0.00, 0.00, 0.000, 0.000, 0.000, 18:58:18.471, 1565909898471
183, 0.00, 0.00, -7803.26, -52380.62, -5420.34, 0.00, 0.00, 0.00, 0.000, 0.000, 0.000, 18:58:18.472, 1565909898472
184, 0.00, 0.00, -7802.90, -52383.41, -5417.77, 0.00, 0.00, 0.00, 0.000, 0.000, 0.000, 18:58:18.479, 1565909898479
185, 0.00, 0.00, -7768.48, -52356.43, -5399.62, 0.00, 0.00, 0.00, 0.260, 0.130, 0.932, 18:58:18.479, 1565909898479
186, 0.00, 0.00, -7752.48, -52339.00, -5391.98, 0.00, 0.00, 0.00, 0.000, 0.000, 0.000, 18:58:18.486, 1565909898486
187, 0.00, 0.00, -7789.07, -52366.29, -5411.18, 0.00, 0.00, 0.00, 0.000, 0.000, 0.000, 18:58:18.493, 1565909898493
188, 0.00, 0.00, -7805.50, -52381.02, -5416.43, 0.00, 0.00, 0.00, 0.000, 0.000, 0.000, 18:58:18.493, 1565909898493
189, 0.00, 0.00, -7777.67, -52362.91, -5402.44, 0.00, 0.00, 0.00, 0.000, 0.000, 0.000, 18:58:18.501, 1565909898501
190, 0.00, 0.00, -7752.23, -52341.35, -5394.24, 0.00, 0.00, 0.00, 0.000, 0.000, 0.000, 18:58:18.501, 1565909898501
191, 0.00, 0.00, -7781.47, -52363.52, -5411.11, 0.00, 0.00, 0.00, 0.000, 0.000, 0.000, 18:58:18.509, 1565909898509
192, 0.00, 0.00, -7788.20, -52373.13, -5411.11, 0.00, 0.00, 0.00, 0.000, 0.000, 0.000, 18:58:18.509, 1565909898509
193, 0.00, 0.00, -7760.41, -52353.75, -5394.64, 0.00, 0.00, 0.00, 0.000, 0.000, 0.000, 18:58:18.516, 1565909898516
194, 0.00, 0.00, -7730.55, -52324.71, -5379.80, 0.00, 0.00, 0.00, 0.254, 0.130, 0.934, 18:58:18.516, 1565909898516
195, 0.00, 0.00, -7763.41, -52344.83, -5397.77, 0.00, 0.00, 0.00, 0.000, 0.000, 0.000, 18:58:18.523, 1565909898523
196, 0.00, 0.00, -7794.14, -52373.20, -5411.96, 0.00, 0.00, 0.00, 0.000, 0.000, 0.000, 18:58:18.524, 1565909898524
197, 0.00, 0.00, -7787.39, -52368.66, -5406.15, 0.00, 0.00, 0.00, 0.000, 0.000, 0.000, 18:58:18.531, 1565909898531
198, 0.00, 0.00, -7758.00, -52342.46, -5390.77, 0.00, 0.00, 0.00, 0.000, 0.000, 0.000, 18:58:18.532, 1565909898532
199, 0.00, 0.00, -7783.39, -52359.05, -5406.66, 0.00, 0.00, 0.00, 0.000, 0.000, 0.000, 18:58:18.539, 1565909898539
200, 0.00, 0.00, -7803.75, -52377.96, -5413.86, 0.00, 0.00, 0.00, 0.000, 0.000, 0.000, 18:58:18.540, 1565909898540
201, 0.00, 0.00, -7784.42, -52367.27, -5403.89, 0.00, 0.00, 0.00, 0.000, 0.000, 0.000, 18:58:18.545, 1565909898545
202, 0.00, 0.00, -7743.07, -52334.20, -5383.86, 0.00, 0.00, 0.00, 0.000, 0.000, 0.000, 18:58:18.553, 1565909898553
203, 0.00, 0.00, -7750.27, -52332.23, -5386.26, 0.00, 0.00, 0.00, 0.000, 0.000, 0.000, 18:58:18.553, 1565909898553
204, 0.00, 0.00, -7782.56, -52362.13, -5404.23, 0.00, 0.00, 0.00, 0.260, 0.134, 0.936, 18:58:18.561, 1565909898561
205, 0.00, 0.00, -7774.12, -52360.17, -5399.44, 0.00, 0.00, 0.00, 0.000, 0.000, 0.000, 18:58:18.562, 1565909898562
206, 0.00, 0.00, -7735.76, -52333.50, -5380.69, 0.00, 0.00, 0.00, 0.000, 0.000, 0.000, 18:58:18.570, 1565909898570
207, 0.00, 0.00, -7748.79, -52339.56, -5392.29, 0.00, 0.00, 0.00, 0.000, 0.000, 0.000, 18:58:18.570, 1565909898570
208, 0.00, 0.00, -7796.62, -52371.68, -5412.21, 0.00, 0.00, 0.00, 0.000, 0.000, 0.000, 18:58:18.576, 1565909898576
209, 0.00, 0.00, -7803.91, -52381.45, -5414.35, 0.00, 0.00, 0.00, 0.000, 0.000, 0.000, 18:58:18.576, 1565909898576
210, 0.00, 0.00, -7770.47, -52359.94, -5398.77, 0.00, 0.00, 0.00, 0.000, 0.000, 0.000, 18:58:18.584, 1565909898584
211, 0.00, 0.00, -7753.82, -52341.59, -5391.08, 0.00, 0.00, 0.00, 0.000, 0.000, 0.000, 18:58:18.584, 1565909898584
212, 0.00, 0.00, -7783.50, -52365.02, -5407.74, 0.00, 0.00, 0.00, 0.000, 0.000, 0.000, 18:58:18.592, 1565909898592
213, 0.00, 0.00, -7791.06, -52375.16, -5411.40, 0.00, 0.00, 0.00, 0.000, 0.000, 0.000, 18:58:18.592, 1565909898592
214, 0.00, 0.00, -7769.60, -52360.32, -5400.16, 0.00, 0.00, 0.00, 0.260, 0.134, 0.932, 18:58:18.599, 1565909898599
215, 0.00, 0.00, -7753.89, -52345.66, -5394.64, 0.00, 0.00, 0.00, 0.000, 0.000, 0.000, 18:58:18.599, 1565909898599
216, 0.00, 0.00, -7780.13, -52362.60, -5409.17, 0.00, 0.00, 0.00, 0.000, 0.000, 0.000, 18:58:18.606, 1565909898606
217, 0.00, 0.00, -7793.29, -52372.46, -5412.14, 0.00, 0.00, 0.00, 0.000, 0.000, 0.000, 18:58:18.613, 1565909898613
218, 0.00, 0.00, -7781.47, -52363.25, -5404.34, 0.00, 0.00, 0.00, 0.000, 0.000, 0.000, 18:58:18.614, 1565909898614
219, 0.00, 0.00, -7757.64, -52343.67, -5395.46, 0.00, 0.00, 0.00, 0.000, 0.000, 0.000, 18:58:18.622, 1565909898622
220, 0.00, 0.00, -7777.29, -52357.80, -5408.88, 0.00, 0.00, 0.00, 0.000, 0.000, 0.000, 18:58:18.622, 1565909898622
221, 0.00, 0.00, -7793.94, -52375.21, -5416.27, 0.00, 0.00, 0.00, 0.000, 0.000, 0.000, 18:58:18.628, 1565909898628
222, 0.00, 0.00, -7777.56, -52366.78, -5406.93, 0.00, 0.00, 0.00, 0.000, 0.000, 0.000, 18:58:18.628, 1565909898628
223, 0.00, 0.00, -7741.17, -52337.93, -5389.99, 0.00, 0.00, 0.00, 0.000, 0.000, 0.000, 18:58:18.636, 1565909898636
224, 0.00, 0.00, -7758.94, -52347.05, -5402.28, 0.00, 0.00, 0.00, 0.262, 0.132, 0.938, 18:58:18.637, 1565909898637
225, 0.00, 0.00, -7787.17, -52370.74, -5414.69, 0.00, 0.00, 0.00, 0.000, 0.000, 0.000, 18:58:18.644, 1565909898644
226, 0.00, 0.00, -7789.23, -52374.38, -5413.41, 0.00, 0.00, 0.00, 0.000, 0.000, 0.000, 18:58:18.644, 1565909898644
227, 0.00, 0.00, -7765.15, -52354.22, -5400.25, 0.00, 0.00, 0.00, 0.000, 0.000, 0.000, 18:58:18.652, 1565909898652
228, 0.00, 0.00, -7769.96, -52352.03, -5404.07, 0.00, 0.00, 0.00, 0.000, 0.000, 0.000, 18:58:18.652, 1565909898652
229, 0.00, 0.00, -7796.29, -52374.18, -5415.00, 0.00, 0.00, 0.00, 0.000, 0.000, 0.000, 18:58:18.659, 1565909898659
230, 0.00, 0.00, -7782.09, -52370.25, -5409.28, 0.00, 0.00, 0.00, 0.000, 0.000, 0.000, 18:58:18.659, 1565909898659
231, 0.00, 0.00, -7739.78, -52337.66, -5385.52, 0.00, 0.00, 0.00, 0.000, 0.000, 0.000, 18:58:18.666, 1565909898666
232, 0.00, 0.00, -7740.41, -52329.19, -5384.27, 0.00, 0.00, 0.00, 0.000, 0.000, 0.000, 18:58:18.666, 1565909898666
233, 0.00, 0.00, -7779.90, -52359.47, -5401.54, 0.00, 0.00, 0.00, 0.000, 0.000, 0.000, 18:58:18.674, 1565909898674
234, 0.00, 0.00, -7790.90, -52367.54, -5402.68, 0.00, 0.00, 0.00, 0.256, 0.134, 0.936, 18:58:18.681, 1565909898681
235, 0.00, 0.00, -7763.72, -52345.35, -5388.38, 0.00, 0.00, 0.00, 0.000, 0.000, 0.000, 18:58:18.681, 1565909898681
236, 0.00, 0.00, -7751.18, -52333.90, -5387.31, 0.00, 0.00, 0.00, 0.000, 0.000, 0.000, 18:58:18.688, 1565909898688
237, 0.00, 0.00, -7795.24, -52369.00, -5412.65, 0.00, 0.00, 0.00, 0.000, 0.000, 0.000, 18:58:18.688, 1565909898688
238, 0.00, 0.00, -7800.29, -52381.25, -5417.77, 0.00, 0.00, 0.00, 0.000, 0.000, 0.000, 18:58:18.696, 1565909898696
239, 0.00, 0.00, -7771.43, -52364.57, -5406.53, 0.00, 0.00, 0.00, 0.000, 0.000, 0.000, 18:58:18.696, 1565909898696
240, 0.00, 0.00, -7760.06, -52349.04, -5406.31, 0.00, 0.00, 0.00, 0.000, 0.000, 0.000, 18:58:18.704, 1565909898704
241, 0.00, 0.00, -7791.50, -52369.89, -5422.85, 0.00, 0.00, 0.00, 0.000, 0.000, 0.000, 18:58:18.705, 1565909898705
242, 0.00, 0.00, -7802.46, -52382.88, -5426.38, 0.00, 0.00, 0.00, 0.000, 0.000, 0.000, 18:58:18.711, 1565909898711
243, 0.00, 0.00, -7772.15, -52362.09, -5407.78, 0.00, 0.00, 0.00, 0.000, 0.000, 0.000, 18:58:18.711, 1565909898711
244, 0.00, 0.00, -7732.36, -52328.25, -5384.85, 0.00, 0.00, 0.00, 0.250, 0.138, 0.936, 18:58:18.719, 1565909898719
245, 0.00, 0.00, -7750.71, -52337.46, -5391.44, 0.00, 0.00, 0.00, 0.000, 0.000, 0.000, 18:58:18.719, 1565909898719
246, 0.00, 0.00, -7777.67, -52359.12, -5400.11, 0.00, 0.00, 0.00, 0.000, 0.000, 0.000, 18:58:18.727, 1565909898727
247, 0.00, 0.00, -7771.12, -52355.59, -5393.45, 0.00, 0.00, 0.00, 0.000, 0.000, 0.000, 18:58:18.727, 1565909898727
248, 0.00, 0.00, -7738.02, -52329.21, -5378.08, 0.00, 0.00, 0.00, 0.000, 0.000, 0.000, 18:58:18.734, 1565909898734
249, 0.00, 0.00, -7751.94, -52336.03, -5388.02, 0.00, 0.00, 0.00, 0.000, 0.000, 0.000, 18:58:18.741, 1565909898741
250, 0.00, 0.00, -7782.59, -52362.76, -5401.57, 0.00, 0.00, 0.00, 0.000, 0.000, 0.000, 18:58:18.741, 1565909898741
251, 0.00, 0.00, -7779.37, -52363.27, -5397.32, 0.00, 0.00, 0.00, 0.000, 0.000, 0.000, 18:58:18.749, 1565909898749
252, 0.00, 0.00, -7746.91, -52338.26, -5383.55, 0.00, 0.00, 0.00, 0.000, 0.000, 0.000, 18:58:18.749, 1565909898749
253, 0.00, 0.00, -7753.35, -52339.04, -5391.96, 0.00, 0.00, 0.00, 0.000, 0.000, 0.000, 18:58:18.757, 1565909898757
254, 0.00, 0.00, -7787.59, -52367.66, -5408.67, 0.00, 0.00, 0.00, 0.254, 0.136, 0.928, 18:58:18.757, 1565909898757
255, 0.00, 0.00, -7786.36, -52369.98, -5404.58, 0.00, 0.00, 0.00, 0.000, 0.000, 0.000, 18:58:18.764, 1565909898764
0, 0.00, 0.00, -7745.30, -52338.04, -5381.56, 0.00, 0.00, 0.00, 0.000, 0.000, 0.000, 18:58:18.764, 1565909898764
1, 0.00, 0.00, -7734.15, -52326.53, -5381.09, 0.00, 0.00, 0.00, 0.000, 0.000, 0.000, 18:58:18.771, 1565909898771
2, 0.00, 0.00, -7771.08, -52353.84, -5399.71, 0.00, 0.00, 0.00, 0.000, 0.000, 0.000, 18:58:18.771, 1565909898771
3, 0.00, 0.00, -7780.96, -52362.22, -5399.80, 0.00, 0.00, 0.00, 0.000, 0.000, 0.000, 18:58:18.780, 1565909898780
4, 0.00, 0.00, -7756.32, -52344.52, -5386.35, 0.00, 0.00, 0.00, 0.000, 0.000, 0.000, 18:58:18.780, 1565909898780
5, 0.00, 0.00, -7742.49, -52330.68, -5384.11, 0.00, 0.00, 0.00, 0.000, 0.000, 0.000, 18:58:18.787, 1565909898787
6, 0.00, 0.00, -7768.15, -52349.88, -5395.89, 0.00, 0.00, 0.00, 0.000, 0.000, 0.000, 18:58:18.787, 1565909898787
7, 0.00, 0.00, -7784.60, -52364.79, -5401.28, 0.00, 0.00, 0.00, 0.256, 0.136, 0.928, 18:58:18.793, 1565909898793
8, 0.00, 0.00, -7767.54, -52352.23, -5390.12, 0.00, 0.00, 0.00, 0.000, 0.000, 0.000, 18:58:18.801, 1565909898801
9, 0.00, 0.00, -7737.03, -52325.12, -5375.95, 0.00, 0.00, 0.00, 0.000, 0.000, 0.000, 18:58:18.801, 1565909898801
10, 0.00, 0.00, -7763.34, -52343.00, -5389.50, 0.00, 0.00, 0.00, 0.000, 0.000, 0.000, 18:58:18.809, 1565909898809
11, 0.00, 0.00, -7783.82, -52362.98, -5398.66, 0.00, 0.00, 0.00, 0.000, 0.000, 0.000, 18:58:18.809, 1565909898809
12, 0.00, 0.00, -7768.82, -52354.64, -5391.26, 0.00, 0.00, 0.00, 0.000, 0.000, 0.000, 18:58:18.816, 1565909898816
13, 0.00, 0.00, -7736.48, -52327.89, -5378.25, 0.00, 0.00, 0.00, 0.000, 0.000, 0.000, 18:58:18.816, 1565909898816
14, 0.00, 0.00, -7758.38, -52339.04, -5388.76, 0.00, 0.00, 0.00, 0.000, 0.000, 0.000, 18:58:18.823, 1565909898823
15, 0.00, 0.00, -7782.23, -52360.46, -5399.49, 0.00, 0.00, 0.00, 0.000, 0.000, 0.000, 18:58:18.824, 1565909898824
16, 0.00, 0.00, -7762.81, -52348.81, -5386.41, 0.00, 0.00, 0.00, 0.000, 0.000, 0.000, 18:58:18.831, 1565909898831
17, 0.00, 0.00, -7729.28, -52325.07, -5374.01, 0.00, 0.00, 0.00, 0.252, 0.130, 0.930, 18:58:18.832, 1565909898832
18, 0.00, 0.00, -7759.83, -52339.76, -5390.23, 0.00, 0.00, 0.00, 0.000, 0.000, 0.000, 18:58:18.840, 1565909898840
19, 0.00, 0.00, -7800.98, -52371.95, -5407.20, 0.00, 0.00, 0.00, 0.000, 0.000, 0.000, 18:58:18.840, 1565909898840
20, 0.00, 0.00, -7797.56, -52372.35, -5403.29, 0.00, 0.00, 0.00, 0.000, 0.000, 0.000, 18:58:18.847, 1565909898847
21, 0.00, 0.00, -7760.19, -52344.41, -5385.52, 0.00, 0.00, 0.00, 0.000, 0.000, 0.000, 18:58:18.847, 1565909898847
22, 0.00, 0.00, -7762.45, -52341.79, -5388.33, 0.00, 0.00, 0.00, 0.000, 0.000, 0.000, 18:58:18.853, 1565909898853
23, 0.00, 0.00, -7784.62, -52359.68, -5394.97, 0.00, 0.00, 0.00, 0.000, 0.000, 0.000, 18:58:18.861, 1565909898861
24, 0.00, 0.00, -7780.19, -52360.61, -5392.18, 0.00, 0.00, 0.00, 0.000, 0.000, 0.000, 18:58:18.861, 1565909898861
25, 0.00, 0.00, -7745.01, -52333.52, -5375.64, 0.00, 0.00, 0.00, 0.000, 0.000, 0.000, 18:58:18.869, 1565909898869
26, 0.00, 0.00, -7743.16, -52325.07, -5377.65, 0.00, 0.00, 0.00, 0.000, 0.000, 0.000, 18:58:18.869, 1565909898869
27, 0.00, 0.00, -7783.75, -52357.77, -5399.78, 0.00, 0.00, 0.00, 0.252, 0.132, 0.932, 18:58:18.876, 1565909898876
28, 0.00, 0.00, -7787.62, -52363.34, -5398.71, 0.00, 0.00, 0.00, 0.000, 0.000, 0.000, 18:58:18.876, 1565909898876
29, 0.00, 0.00, -7748.88, -52335.69, -5378.30, 0.00, 0.00, 0.00, 0.000, 0.000, 0.000, 18:58:18.884, 1565909898884
30, 0.00, 0.00, -7726.84, -52314.95, -5369.40, 0.00, 0.00, 0.00, 0.000, 0.000, 0.000, 18:58:18.884, 1565909898884
31, 0.00, 0.00, -7762.92, -52339.78, -5386.57, 0.00, 0.00, 0.00, 0.000, 0.000, 0.000, 18:58:18.892, 1565909898892
32, 0.00, 0.00, -7777.16, -52356.32, -5391.96, 0.00, 0.00, 0.00, 0.000, 0.000, 0.000, 18:58:18.892, 1565909898892
33, 0.00, 0.00, -7748.23, -52338.93, -5376.91, 0.00, 0.00, 0.00, 0.000, 0.000, 0.000, 18:58:18.900, 1565909898900
34, 0.00, 0.00, -7724.00, -52315.48, -5366.79, 0.00, 0.00, 0.00, 0.000, 0.000, 0.000, 18:58:18.900, 1565909898900
35, 0.00, 0.00, -7764.12, -52339.65, -5383.82, 0.00, 0.00, 0.00, 0.000, 0.000, 0.000, 18:58:18.907, 1565909898907
36, 0.00, 0.00, -7800.00, -52371.97, -5401.12, 0.00, 0.00, 0.00, 0.000, 0.000, 0.000, 18:58:18.907, 1565909898907
37, 0.00, 0.00, -7785.94, -52364.28, -5394.17, 0.00, 0.00, 0.00, 0.254, 0.130, 0.934, 18:58:18.913, 1565909898913
38, 0.00, 0.00, -7751.74, -52335.31, -5378.30, 0.00, 0.00, 0.00, 0.000, 0.000, 0.000, 18:58:18.913, 1565909898913
39, 0.00, 0.00, -7774.99, -52352.25, -5395.08, 0.00, 0.00, 0.00, 0.000, 0.000, 0.000, 18:58:18.921, 1565909898921
40, 0.00, 0.00, -7793.58, -52372.17, -5405.12, 0.00, 0.00, 0.00, 0.000, 0.000, 0.000, 18:58:18.928, 1565909898928
41, 0.00, 0.00, -7775.28, -52360.28, -5393.30, 0.00, 0.00, 0.00, 0.000, 0.000, 0.000, 18:58:18.929, 1565909898929
42, 0.00, 0.00, -7740.23, -52332.34, -5377.85, 0.00, 0.00, 0.00, 0.000, 0.000, 0.000, 18:58:18.936, 1565909898936
43, 0.00, 0.00, -7760.32, -52344.18, -5392.34, 0.00, 0.00, 0.00, 0.000, 0.000, 0.000, 18:58:18.936, 1565909898936
44, 0.00, 0.00, -7789.65, -52370.40, -5406.15, 0.00, 0.00, 0.00, 0.000, 0.000, 0.000, 18:58:18.944, 1565909898944
45, 0.00, 0.00, -7781.96, -52367.54, -5400.78, 0.00, 0.00, 0.00, 0.000, 0.000, 0.000, 18:58:18.944, 1565909898944
46, 0.00, 0.00, -7738.93, -52334.08, -5377.65, 0.00, 0.00, 0.00, 0.000, 0.000, 0.000, 18:58:18.952, 1565909898952
47, 0.00, 0.00, -7748.14, -52335.98, -5384.94, 0.00, 0.00, 0.00, 0.256, 0.132, 0.940, 18:58:18.952, 1565909898952
48, 0.00, 0.00, -7790.43, -52370.71, -5407.71, 0.00, 0.00, 0.00, 0.000, 0.000, 0.000, 18:58:18.959, 1565909898959
49, 0.00, 0.00, -7794.95, -52379.55, -5412.61, 0.00, 0.00, 0.00, 0.000, 0.000, 0.000, 18:58:18.959, 1565909898959
50, 0.00, 0.00, -7751.83, -52350.67, -5392.22, 0.00, 0.00, 0.00, 0.000, 0.000, 0.000, 18:58:18.967, 1565909898967
51, 0.00, 0.00, -7742.11, -52336.16, -5387.62, 0.00, 0.00, 0.00, 0.000, 0.000, 0.000, 18:58:18.967, 1565909898967
52, 0.00, 0.00, -7780.69, -52361.38, -5402.24, 0.00, 0.00, 0.00, 0.000, 0.000, 0.000, 18:58:18.975, 1565909898975
53, 0.00, 0.00, -7788.60, -52370.43, -5404.65, 0.00, 0.00, 0.00, 0.000, 0.000, 0.000, 18:58:18.975, 1565909898975
54, 0.00, 0.00, -7757.66, -52347.54, -5387.37, 0.00, 0.00, 0.00, 0.000, 0.000, 0.000, 18:58:18.981, 1565909898981
55, 0.00, 0.00, -7735.67, -52328.67, -5382.21, 0.00, 0.00, 0.00, 0.000, 0.000, 0.000, 18:58:18.989, 1565909898989
56, 0.00, 0.00, -7760.79, -52348.63, -5399.20, 0.00, 0.00, 0.00, 0.000, 0.000, 0.000, 18:58:18.989, 1565909898989
57, 0.00, 0.00, -7776.15, -52362.07, -5403.74, 0.00, 0.00, 0.00, 0.260, 0.132, 0.940, 18:58:18.997, 1565909898997
58, 0.00, 0.00, -7770.78, -52358.27, -5396.92, 0.00, 0.00, 0.00, 0.000, 0.000, 0.000, 18:58:18.997, 1565909898997
59, 0.00, 0.00, -7761.49, -52347.67, -5393.50, 0.00, 0.00, 0.00, 0.000, 0.000, 0.000, 18:58:19.004, 1565909899004
60, 0.00, 0.00, -7783.93, -52362.51, -5406.42, 0.00, 0.00, 0.00, 0.000, 0.000, 0.000, 18:58:19.004, 1565909899004
61, 0.00, 0.00, -7788.55, -52370.63, -5406.64, 0.00, 0.00, 0.00, 0.000, 0.000, 0.000, 18:58:19.011, 1565909899011
62, 0.00, 0.00, -7761.78, -52353.46, -5393.07, 0.00, 0.00, 0.00, 0.000, 0.000, 0.000, 18:58:19.011, 1565909899011
63, 0.00, 0.00, -7726.86, -52324.38, -5377.05, 0.00, 0.00, 0.00, 0.000, 0.000, 0.000, 18:58:19.019, 1565909899019
64, 0.00, 0.00, -7758.36, -52346.42, -5397.41, 0.00, 0.00, 0.00, 0.000, 0.000, 0.000, 18:58:19.019, 1565909899019
65, 0.00, 0.00, -7781.40, -52367.70, -5407.13, 0.00, 0.00, 0.00, 0.000, 0.000, 0.000, 18:58:19.027, 1565909899027
66, 0.00, 0.00, -7774.76, -52363.74, -5398.86, 0.00, 0.00, 0.00, 0.260, 0.134, 0.936, 18:58:19.028, 1565909899028
67, 0.00, 0.00, -7747.65, -52338.82, -5383.31, 0.00, 0.00, 0.00, 0.000, 0.000, 0.000, 18:58:19.034, 1565909899034
68, 0.00, 0.00, -7753.95, -52339.09, -5388.27, 0.00, 0.00, 0.00, 0.000, 0.000, 0.000, 18:58:19.034, 1565909899034
69, 0.00, 0.00, -7778.70, -52360.21, -5398.01, 0.00, 0.00, 0.00, 0.000, 0.000, 0.000, 18:58:19.041, 1565909899041
70, 0.00, 0.00, -7777.04, -52362.85, -5396.27, 0.00, 0.00, 0.00, 0.000, 0.000, 0.000, 18:58:19.049, 1565909899049
71, 0.00, 0.00, -7746.47, -52339.94, -5381.34, 0.00, 0.00, 0.00, 0.000, 0.000, 0.000, 18:58:19.049, 1565909899049
72, 0.00, 0.00, -7749.39, -52337.95, -5385.81, 0.00, 0.00, 0.00, 0.000, 0.000, 0.000, 18:58:19.057, 1565909899057
73, 0.00, 0.00, -7785.60, -52367.36, -5403.02, 0.00, 0.00, 0.00, 0.000, 0.000, 0.000, 18:58:19.057, 1565909899057
74, 0.00, 0.00, -7790.28, -52373.36, -5404.03, 0.00, 0.00, 0.00, 0.000, 0.000, 0.000, 18:58:19.064, 1565909899064
75, 0.00, 0.00, -7753.60, -52347.05, -5385.18, 0.00, 0.00, 0.00, 0.000, 0.000, 0.000, 18:58:19.064, 1565909899064
76, 0.00, 0.00, -7735.54, -52328.47, -5377.90, 0.00, 0.00, 0.00, 0.256, 0.134, 0.938, 18:58:19.071, 1565909899071
77, 0.00, 0.00, -7768.39, -52352.52, -5393.68, 0.00, 0.00, 0.00, 0.000, 0.000, 0.000, 18:58:19.071, 1565909899071
78, 0.00, 0.00, -7787.33, -52371.57, -5402.75, 0.00, 0.00, 0.00, 0.000, 0.000, 0.000, 18:58:19.079, 1565909899079
79, 0.00, 0.00, -7763.70, -52354.07, -5387.93, 0.00, 0.00, 0.00, 0.000, 0.000, 0.000, 18:58:19.079, 1565909899079
80, 0.00, 0.00, -7741.68, -52332.72, -5379.73, 0.00, 0.00, 0.00, 0.000, 0.000, 0.000, 18:58:19.087, 1565909899087
81, 0.00, 0.00, -7771.77, -52357.11, -5398.44, 0.00, 0.00, 0.00, 0.000, 0.000, 0.000, 18:58:19.088, 1565909899088
82, 0.00, 0.00, -7789.00, -52375.10, -5408.43, 0.00, 0.00, 0.00, 0.000, 0.000, 0.000, 18:58:19.094, 1565909899094
83, 0.00, 0.00, -7764.88, -52355.61, -5390.59, 0.00, 0.00, 0.00, 0.000, 0.000, 0.000, 18:58:19.095, 1565909899095
84, 0.00, 0.00, -7742.06, -52334.57, -5380.47, 0.00, 0.00, 0.00, 0.000, 0.000, 0.000, 18:58:19.101, 1565909899101
85, 0.00, 0.00, -7779.21, -52361.87, -5401.92, 0.00, 0.00, 0.00, 0.000, 0.000, 0.000, 18:58:19.109, 1565909899109
86, 0.00, 0.00, -7797.29, -52381.29, -5411.22, 0.00, 0.00, 0.00, 0.258, 0.136, 0.930, 18:58:19.109, 1565909899109
87, 0.00, 0.00, -7779.19, -52370.27, -5400.74, 0.00, 0.00, 0.00, 0.000, 0.000, 0.000, 18:58:19.117, 1565909899117
88, 0.00, 0.00, -7743.18, -52338.93, -5381.67, 0.00, 0.00, 0.00, 0.000, 0.000, 0.000, 18:58:19.117, 1565909899117
89, 0.00, 0.00, -7761.71, -52348.54, -5393.68, 0.00, 0.00, 0.00, 0.000, 0.000, 0.000, 18:58:19.124, 1565909899124
90, 0.00, 0.00, -7785.72, -52371.23, -5405.03, 0.00, 0.00, 0.00, 0.000, 0.000, 0.000, 18:58:19.124, 1565909899124
91, 0.00, 0.00, -7778.12, -52367.88, -5400.56, 0.00, 0.00, 0.00, 0.000, 0.000, 0.000, 18:58:19.132, 1565909899132
92, 0.00, 0.00, -7741.95, -52338.89, -5384.07, 0.00, 0.00, 0.00, 0.000, 0.000, 0.000, 18:58:19.132, 1565909899132
93, 0.00, 0.00, -7744.68, -52338.64, -5390.39, 0.00, 0.00, 0.00, 0.000, 0.000, 0.000, 18:58:19.139, 1565909899139
94, 0.00, 0.00, -7760.70, -52355.18, -5397.75, 0.00, 0.00, 0.00, 0.000, 0.000, 0.000, 18:58:19.140, 1565909899140
95, 0.00, 0.00, -7766.87, -52359.34, -5393.63, 0.00, 0.00, 0.00, 0.000, 0.000, 0.000, 18:58:19.147, 1565909899147
96, 0.00, 0.00, -7750.51, -52342.35, -5379.64, 0.00, 0.00, 0.00, 0.256, 0.136, 0.930, 18:58:19.147, 1565909899147
97, 0.00, 0.00, -7761.75, -52349.19, -5394.46, 0.00, 0.00, 0.00, 0.000, 0.000, 0.000, 18:58:19.154, 1565909899154
98, 0.00, 0.00, -7784.69, -52370.52, -5408.59, 0.00, 0.00, 0.00, 0.000, 0.000, 0.000, 18:58:19.155, 1565909899155
99, 0.00, 0.00, -7784.08, -52372.30, -5404.23, 0.00, 0.00, 0.00, 0.000, 0.000, 0.000, 18:58:19.162, 1565909899162
100, 0.00, 0.00, -7765.08, -52357.75, -5393.07, 0.00, 0.00, 0.00, 0.000, 0.000, 0.000, 18:58:19.162, 1565909899162
101, 0.00, 0.00, -7756.28, -52345.08, -5391.75, 0.00, 0.00, 0.00, 0.000, 0.000, 0.000, 18:58:19.169, 1565909899169
102, 0.00, 0.00, -7782.77, -52366.36, -5405.48, 0.00, 0.00, 0.00, 0.000, 0.000, 0.000, 18:58:19.176, 1565909899176
103, 0.00, 0.00, -7787.75, -52373.42, -5404.99, 0.00, 0.00, 0.00, 0.000, 0.000, 0.000, 18:58:19.176, 1565909899176
104, 0.00, 0.00, -7757.80, -52349.77, -5386.14, 0.00, 0.00, 0.00, 0.000, 0.000, 0.000, 18:58:19.184, 1565909899184
105, 0.00, 0.00, -7735.07, -52327.80, -5377.07, 0.00, 0.00, 0.00, 0.000, 0.000, 0.000, 18:58:19.184, 1565909899184
106, 0.00, 0.00, -7765.31, -52350.62, -5394.59, 0.00, 0.00, 0.00, 0.252, 0.130, 0.936, 18:58:19.192, 1565909899192
107, 0.00, 0.00, -7782.36, -52366.94, -5400.54, 0.00, 0.00, 0.00, 0.000, 0.000, 0.000, 18:58:19.192, 1565909899192
108, 0.00, 0.00, -7759.99, -52352.54, -5389.21, 0.00, 0.00, 0.00, 0.000, 0.000, 0.000, 18:58:19.199, 1565909899199
109, 0.00, 0.00, -7725.08, -52323.69, -5373.38, 0.00, 0.00, 0.00, 0.000, 0.000, 0.000, 18:58:19.199, 1565909899199
110, 0.00, 0.00, -7750.82, -52337.84, -5385.12, 0.00, 0.00, 0.00, 0.000, 0.000, 0.000, 18:58:19.206, 1565909899206
111, 0.00, 0.00, -7773.74, -52358.87, -5393.83, 0.00, 0.00, 0.00, 0.000, 0.000, 0.000, 18:58:19.207, 1565909899207
112, 0.00, 0.00, -7768.24, -52358.76, -5391.33, 0.00, 0.00, 0.00, 0.000, 0.000, 0.000, 18:58:19.214, 1565909899214
113, 0.00, 0.00, -7742.96, -52337.43, -5381.00, 0.00, 0.00, 0.00, 0.000, 0.000, 0.000, 18:58:19.214, 1565909899214
114, 0.00, 0.00, -7770.09, -52351.25, -5394.30, 0.00, 0.00, 0.00, 0.000, 0.000, 0.000, 18:58:19.223, 1565909899223
115, 0.00, 0.00, -7797.09, -52377.85, -5408.34, 0.00, 0.00, 0.00, 0.000, 0.000, 0.000, 18:58:19.223, 1565909899223
116, 0.00, 0.00, -7787.37, -52370.87, -5400.94, 0.00, 0.00, 0.00, 0.256, 0.130, 0.934, 18:58:19.229, 1565909899229
117, 0.00, 0.00, -7749.84, -52340.77, -5383.15, 0.00, 0.00, 0.00, 0.000, 0.000, 0.000, 18:58:19.237, 1565909899237
118, 0.00, 0.00, -7760.10, -52345.41, -5392.16, 0.00, 0.00, 0.00, 0.000, 0.000, 0.000, 18:58:19.237, 1565909899237
119, 0.00, 0.00, -7790.61, -52372.08, -5406.89, 0.00, 0.00, 0.00, 0.000, 0.000, 0.000, 18:58:19.244, 1565909899244
120, 0.00, 0.00, -7779.79, -52364.73, -5395.58, 0.00, 0.00, 0.00, 0.000, 0.000, 0.000, 18:58:19.244, 1565909899244
121, 0.00, 0.00, -7742.38, -52335.98, -5375.42, 0.00, 0.00, 0.00, 0.000, 0.000, 0.000, 18:58:19.252, 1565909899252
122, 0.00, 0.00, -7738.20, -52328.76, -5377.43, 0.00, 0.00, 0.00, 0.000, 0.000, 0.000, 18:58:19.252, 1565909899252
123, 0.00, 0.00, -7773.27, -52358.04, -5394.10, 0.00, 0.00, 0.00, 0.000, 0.000, 0.000, 18:58:19.259, 1565909899259
124, 0.00, 0.00, -7775.46, -52362.63, -5391.96, 0.00, 0.00, 0.00, 0.000, 0.000, 0.000, 18:58:19.259, 1565909899259
125, 0.00, 0.00, -7740.92, -52337.99, -5377.29, 0.00, 0.00, 0.00, 0.250, 0.138, 0.936, 18:58:19.267, 1565909899267
126, 0.00, 0.00, -7729.88, -52323.96, -5374.68, 0.00, 0.00, 0.00, 0.000, 0.000, 0.000, 18:58:19.267, 1565909899267
127, 0.00, 0.00, -7768.21, -52352.28, -5392.49, 0.00, 0.00, 0.00, 0.000, 0.000, 0.000, 18:58:19.275, 1565909899275
128, 0.00, 0.00, -7782.52, -52367.81, -5399.91, 0.00, 0.00, 0.00, 0.000, 0.000, 0.000, 18:58:19.275, 1565909899275
129, 0.00, 0.00, -7756.03, -52348.16, -5386.10, 0.00, 0.00, 0.00, 0.000, 0.000, 0.000, 18:58:19.282, 1565909899282
130, 0.00, 0.00, -7738.33, -52329.95, -5378.52, 0.00, 0.00, 0.00, 0.000, 0.000, 0.000, 18:58:19.282, 1565909899282
131, 0.00, 0.00, -7767.86, -52352.30, -5396.14, 0.00, 0.00, 0.00, 0.000, 0.000, 0.000, 18:58:19.288, 1565909899288
132, 0.00, 0.00, -7779.81, -52367.27, -5402.53, 0.00, 0.00, 0.00, 0.000, 0.000, 0.000, 18:58:19.296, 1565909899296
133, 0.00, 0.00, -7757.42, -52350.71, -5388.42, 0.00, 0.00, 0.00, 0.000, 0.000, 0.000, 18:58:19.297, 1565909899297
134, 0.00, 0.00, -7736.99, -52329.86, -5378.79, 0.00, 0.00, 0.00, 0.000, 0.000, 0.000, 18:58:19.305, 1565909899305
135, 0.00, 0.00, -7761.84, -52345.28, -5391.11, 0.00, 0.00, 0.00, 0.262, 0.140, 0.934, 18:58:19.305, 1565909899305
136, 0.00, 0.00, -7785.60, -52367.59, -5400.47, 0.00, 0.00, 0.00, 0.000, 0.000, 0.000, 18:58:19.311, 1565909899311
137, 0.00, 0.00, -7775.32, -52363.65, -5396.52, 0.00, 0.00, 0.00, 0.000, 0.000, 0.000, 18:58:19.312, 1565909899312
138, 0.00, 0.00, -7741.12, -52334.42, -5378.30, 0.00, 0.00, 0.00, 0.000, 0.000, 0.000, 18:58:19.319, 1565909899319
139, 0.00, 0.00, -7754.49, -52341.57, -5387.93, 0.00, 0.00, 0.00, 0.000, 0.000, 0.000, 18:58:19.319, 1565909899319
140, 0.00, 0.00, -7768.88, -52358.47, -5395.87, 0.00, 0.00, 0.00, 0.000, 0.000, 0.000, 18:58:19.327, 1565909899327
141, 0.00, 0.00, -7760.93, -52352.70, -5388.87, 0.00, 0.00, 0.00, 0.000, 0.000, 0.000, 18:58:19.327, 1565909899327
142, 0.00, 0.00, -7730.89, -52325.14, -5369.34, 0.00, 0.00, 0.00, 0.000, 0.000, 0.000, 18:58:19.334, 1565909899334
143, 0.00, 0.00, -7745.04, -52330.86, -5378.63, 0.00, 0.00, 0.00, 0.000, 0.000, 0.000, 18:58:19.335, 1565909899335
144, 0.00, 0.00, -7781.83, -52362.54, -5397.63, 0.00, 0.00, 0.00, 0.000, 0.000, 0.000, 18:58:19.342, 1565909899342
145, 0.00, 0.00, -7778.54, -52365.42, -5395.80, 0.00, 0.00, 0.00, 0.262, 0.138, 0.932, 18:58:19.342, 1565909899342
146, 0.00, 0.00, -7744.57, -52342.02, -5381.36, 0.00, 0.00, 0.00, 0.000, 0.000, 0.000, 18:58:19.348, 1565909899348
147, 0.00, 0.00, -7735.92, -52330.35, -5378.81, 0.00, 0.00, 0.00, 0.000, 0.000, 0.000, 18:58:19.357, 1565909899357
148, 0.00, 0.00, -7764.95, -52351.98, -5390.93, 0.00, 0.00, 0.00, 0.000, 0.000, 0.000, 18:58:19.357, 1565909899357
149, 0.00, 0.00, -7765.80, -52354.69, -5387.71, 0.00, 0.00, 0.00, 0.000, 0.000, 0.000, 18:58:19.364, 1565909899364
150, 0.00, 0.00, -7739.67, -52338.71, -5376.87, 0.00, 0.00, 0.00, 0.000, 0.000, 0.000, 18:58:19.364, 1565909899364
151, 0.00, 0.00, -7729.14, -52326.48, -5376.73, 0.00, 0.00, 0.00, 0.000, 0.000, 0.000, 18:58:19.371, 1565909899371
152, 0.00, 0.00, -7761.11, -52346.67, -5388.22, 0.00, 0.00, 0.00, 0.000, 0.000, 0.000, 18:58:19.372, 1565909899372
153, 0.00, 0.00, -7767.72, -52354.40, -5386.79, 0.00, 0.00, 0.00, 0.000, 0.000, 0.000, 18:58:19.382, 1565909899382
154, 0.00, 0.00, -7740.61, -52334.84, -5370.63, 0.00, 0.00, 0.00, 0.000, 0.000, 0.000, 18:58:19.382, 1565909899382
155, 0.00, 0.00, -7728.94, -52322.46, -5370.05, 0.00, 0.00, 0.00, 0.258, 0.136, 0.926, 18:58:19.387, 1565909899387
156, 0.00, 0.00, -7765.47, -52349.84, -5391.51, 0.00, 0.00, 0.00, 0.000, 0.000, 0.000, 18:58:19.388, 1565909899388
157, 0.00, 0.00, -7780.69, -52366.65, -5397.39, 0.00, 0.00, 0.00, 0.000, 0.000, 0.000, 18:58:19.394, 1565909899394
158, 0.00, 0.00, -7769.60, -52359.61, -5390.03, 0.00, 0.00, 0.00, 0.000, 0.000, 0.000, 18:58:19.394, 1565909899394
159, 0.00, 0.00, -7732.27, -52330.64, -5377.52, 0.00, 0.00, 0.00, 0.000, 0.000, 0.000, 18:58:19.402, 1565909899402
160, 0.00, 0.00, -7756.93, -52347.34, -5394.97, 0.00, 0.00, 0.00, 0.000, 0.000, 0.000, 18:58:19.402, 1565909899402
161, 0.00, 0.00, -7794.97, -52377.67, -5410.49, 0.00, 0.00, 0.00, 0.000, 0.000, 0.000, 18:58:19.409, 1565909899409
162, 0.00, 0.00, -7792.18, -52380.11, -5410.51, 0.00, 0.00, 0.00, 0.000, 0.000, 0.000, 18:58:19.409, 1565909899409
163, 0.00, 0.00, -7757.31, -52354.18, -5397.45, 0.00, 0.00, 0.00, 0.000, 0.000, 0.000, 18:58:19.417, 1565909899417
164, 0.00, 0.00, -7762.05, -52353.66, -5399.49, 0.00, 0.00, 0.00, 0.000, 0.000, 0.000, 18:58:19.424, 1565909899424
165, 0.00, 0.00, -7779.26, -52367.66, -5402.08, 0.00, 0.00, 0.00, 0.256, 0.138, 0.932, 18:58:19.424, 1565909899424
166, 0.00, 0.00, -7770.94, -52361.73, -5390.88, 0.00, 0.00, 0.00, 0.000, 0.000, 0.000, 18:58:19.431, 1565909899431
167, 0.00, 0.00, -7736.65, -52334.95, -5372.62, 0.00, 0.00, 0.00, 0.000, 0.000, 0.000, 18:58:19.431, 1565909899431
168, 0.00, 0.00, -7744.19, -52335.20, -5380.74, 0.00, 0.00, 0.00, 0.000, 0.000, 0.000, 18:58:19.440, 1565909899440
169, 0.00, 0.00, -7777.24, -52361.17, -5394.01, 0.00, 0.00, 0.00, 0.000, 0.000, 0.000, 18:58:19.440, 1565909899440
170, 0.00, 0.00, -7774.41, -52363.00, -5390.28, 0.00, 0.00, 0.00, 0.000, 0.000, 0.000, 18:58:19.447, 1565909899447
171, 0.00, 0.00, -7740.36, -52338.53, -5374.79, 0.00, 0.00, 0.00, 0.000, 0.000, 0.000, 18:58:19.447, 1565909899447
172, 0.00, 0.00, -7738.13, -52332.00, -5377.36, 0.00, 0.00, 0.00, 0.000, 0.000, 0.000, 18:58:19.454, 1565909899454
173, 0.00, 0.00, -7766.83, -52354.07, -5388.42, 0.00, 0.00, 0.00, 0.000, 0.000, 0.000, 18:58:19.454, 1565909899454
174, 0.00, 0.00, -7773.74, -52362.56, -5388.71, 0.00, 0.00, 0.00, 0.000, 0.000, 0.000, 18:58:19.463, 1565909899463
175, 0.00, 0.00, -7751.09, -52345.82, -5377.63, 0.00, 0.00, 0.00, 0.250, 0.136, 0.936, 18:58:19.464, 1565909899464
176, 0.00, 0.00, -7728.65, -52322.75, -5367.15, 0.00, 0.00, 0.00, 0.000, 0.000, 0.000, 18:58:19.470, 1565909899470
177, 0.00, 0.00, -7764.73, -52348.66, -5383.66, 0.00, 0.00, 0.00, 0.000, 0.000, 0.000, 18:58:19.470, 1565909899470
178, 0.00, 0.00, -7782.68, -52368.48, -5394.17, 0.00, 0.00, 0.00, 0.000, 0.000, 0.000, 18:58:19.476, 1565909899476
179, 0.00, 0.00, -7755.29, -52350.58, -5381.38, 0.00, 0.00, 0.00, 0.000, 0.000, 0.000, 18:58:19.484, 1565909899484
180, 0.00, 0.00, -7729.55, -52327.02, -5370.92, 0.00, 0.00, 0.00, 0.000, 0.000, 0.000, 18:58:19.484, 1565909899484
181, 0.00, 0.00, -7765.96, -52354.18, -5393.03, 0.00, 0.00, 0.00, 0.000, 0.000, 0.000, 18:58:19.492, 1565909899492
182, 0.00, 0.00, -7786.63, -52372.53, -5400.40, 0.00, 0.00, 0.00, 0.000, 0.000, 0.000, 18:58:19.492, 1565909899492
183, 0.00, 0.00, -7765.26, -52356.14, -5383.95, 0.00, 0.00, 0.00, 0.000, 0.000, 0.000, 18:58:19.500, 1565909899500
184, 0.00, 0.00, -7742.89, -52334.64, -5373.90, 0.00, 0.00, 0.00, 0.000, 0.000, 0.000, 18:58:19.500, 1565909899500
185, 0.00, 0.00, -7767.10, -52352.52, -5392.13, 0.00, 0.00, 0.00, 0.256, 0.132, 0.944, 18:58:19.507, 1565909899507
186, 0.00, 0.00, -7784.91, -52370.70, -5400.83, 0.00, 0.00, 0.00, 0.000, 0.000, 0.000, 18:58:19.507, 1565909899507
187, 0.00, 0.00, -7773.42, -52363.00, -5391.08, 0.00, 0.00, 0.00, 0.000, 0.000, 0.000, 18:58:19.514, 1565909899514
188, 0.00, 0.00, -7734.78, -52330.82, -5370.21, 0.00, 0.00, 0.00, 0.000, 0.000, 0.000, 18:58:19.514, 1565909899514
189, 0.00, 0.00, -7748.54, -52338.78, -5380.13, 0.00, 0.00, 0.00, 0.000, 0.000, 0.000, 18:58:19.522, 1565909899522
190, 0.00, 0.00, -7772.62, -52360.14, -5390.37, 0.00, 0.00, 0.00, 0.000, 0.000, 0.000, 18:58:19.523, 1565909899523
191, 0.00, 0.00, -7769.06, -52358.58, -5385.56, 0.00, 0.00, 0.00, 0.000, 0.000, 0.000, 18:58:19.529, 1565909899529
192, 0.00, 0.00, -7735.16, -52330.77, -5365.54, 0.00, 0.00, 0.00, 0.000, 0.000, 0.000, 18:58:19.529, 1565909899529
193, 0.00, 0.00, -7745.57, -52335.11, -5376.35, 0.00, 0.00, 0.00, 0.000, 0.000, 0.000, 18:58:19.536, 1565909899536
194, 0.00, 0.00, -7775.28, -52360.95, -5391.78, 0.00, 0.00, 0.00, 0.252, 0.132, 0.938, 18:58:19.544, 1565909899544
195, 0.00, 0.00, -7777.83, -52367.50, -5392.40, 0.00, 0.00, 0.00, 0.000, 0.000, 0.000, 18:58:19.544, 1565909899544
196, 0.00, 0.00, -7739.65, -52343.02, -5377.47, 0.00, 0.00, 0.00, 0.000, 0.000, 0.000, 18:58:19.552, 1565909899552
197, 0.00, 0.00, -7724.99, -52325.03, -5371.55, 0.00, 0.00, 0.00, 0.000, 0.000, 0.000, 18:58:19.552, 1565909899552
198, 0.00, 0.00, -7763.79, -52350.62, -5384.49, 0.00, 0.00, 0.00, 0.000, 0.000, 0.000, 18:58:19.558, 1565909899558
199, 0.00, 0.00, -7790.45, -52373.62, -5395.42, 0.00, 0.00, 0.00, 0.000, 0.000, 0.000, 18:58:19.559, 1565909899559
200, 0.00, 0.00, -7766.72, -52359.65, -5386.52, 0.00, 0.00, 0.00, 0.000, 0.000, 0.000, 18:58:19.567, 1565909899567
201, 0.00, 0.00, -7747.45, -52338.46, -5378.19, 0.00, 0.00, 0.00, 0.000, 0.000, 0.000, 18:58:19.567, 1565909899567
202, 0.00, 0.00, -7781.11, -52362.58, -5394.73, 0.00, 0.00, 0.00, 0.000, 0.000, 0.000, 18:58:19.575, 1565909899575
203, 0.00, 0.00, -7795.01, -52378.27, -5403.56, 0.00, 0.00, 0.00, 0.000, 0.000, 0.000, 18:58:19.575, 1565909899575
204, 0.00, 0.00, -7767.45, -52359.94, -5389.74, 0.00, 0.00, 0.00, 0.256, 0.132, 0.942, 18:58:19.582, 1565909899582
205, 0.00, 0.00, -7741.53, -52338.04, -5378.63, 0.00, 0.00, 0.00, 0.000, 0.000, 0.000, 18:58:19.582, 1565909899582
206, 0.00, 0.00, -7774.03, -52360.10, -5393.72, 0.00, 0.00, 0.00, 0.000, 0.000, 0.000, 18:58:19.589, 1565909899589
207, 0.00, 0.00, -7794.63, -52377.89, -5399.04, 0.00, 0.00, 0.00, 0.000, 0.000, 0.000, 18:58:19.589, 1565909899589
208, 0.00, 0.00, -7774.70, -52364.21, -5385.88, 0.00, 0.00, 0.00, 0.000, 0.000, 0.000, 18:58:19.596, 1565909899596
209, 0.00, 0.00, -7738.04, -52333.41, -5368.02, 0.00, 0.00, 0.00, 0.000, 0.000, 0.000, 18:58:19.604, 1565909899604
210, 0.00, 0.00, -7759.97, -52347.54, -5383.13, 0.00, 0.00, 0.00, 0.000, 0.000, 0.000, 18:58:19.605, 1565909899605
211, 0.00, 0.00, -7785.43, -52371.12, -5394.93, 0.00, 0.00, 0.00, 0.000, 0.000, 0.000, 18:58:19.611, 1565909899611
212, 0.00, 0.00, -7769.69, -52365.38, -5390.12, 0.00, 0.00, 0.00, 0.000, 0.000, 0.000, 18:58:19.611, 1565909899611
213, 0.00, 0.00, -7731.04, -52334.04, -5371.44, 0.00, 0.00, 0.00, 0.000, 0.000, 0.000, 18:58:19.619, 1565909899619
214, 0.00, 0.00, -7742.96, -52335.18, -5374.66, 0.00, 0.00, 0.00, 0.256, 0.130, 0.936, 18:58:19.619, 1565909899619
215, 0.00, 0.00, -7766.45, -52356.41, -5384.13, 0.00, 0.00, 0.00, 0.000, 0.000, 0.000, 18:58:19.627, 1565909899627
216, 0.00, 0.00, -7767.28, -52361.51, -5385.63, 0.00, 0.00, 0.00, 0.000, 0.000, 0.000, 18:58:19.627, 1565909899627
217, 0.00, 0.00, -7735.31, -52339.27, -5371.57, 0.00, 0.00, 0.00, 0.000, 0.000, 0.000, 18:58:19.635, 1565909899635
218, 0.00, 0.00, -7742.00, -52338.22, -5377.20, 0.00, 0.00, 0.00, 0.000, 0.000, 0.000, 18:58:19.635, 1565909899635
219, 0.00, 0.00, -7778.50, -52363.83, -5391.31, 0.00, 0.00, 0.00, 0.000, 0.000, 0.000, 18:58:19.642, 1565909899642
220, 0.00, 0.00, -7785.87, -52374.92, -5395.62, 0.00, 0.00, 0.00, 0.000, 0.000, 0.000, 18:58:19.642, 1565909899642
221, 0.00, 0.00, -7750.67, -52348.61, -5377.85, 0.00, 0.00, 0.00, 0.000, 0.000, 0.000, 18:58:19.649, 1565909899649
222, 0.00, 0.00, -7747.02, -52340.88, -5379.26, 0.00, 0.00, 0.00, 0.000, 0.000, 0.000, 18:58:19.650, 1565909899650
223, 0.00, 0.00, -7776.46, -52362.91, -5393.07, 0.00, 0.00, 0.00, 0.000, 0.000, 0.000, 18:58:19.656, 1565909899656
224, 0.00, 0.00, -7776.10, -52368.21, -5391.33, 0.00, 0.00, 0.00, 0.256, 0.134, 0.938, 18:58:19.657, 1565909899657
225, 0.00, 0.00, -7758.92, -52354.02, -5381.79, 0.00, 0.00, 0.00, 0.000, 0.000, 0.000, 18:58:19.665, 1565909899665
226, 0.00, 0.00, -7745.50, -52336.38, -5375.26, 0.00, 0.00, 0.00, 0.000, 0.000, 0.000, 18:58:19.671, 1565909899671
227, 0.00, 0.00, -7777.94, -52361.84, -5396.36, 0.00, 0.00, 0.00, 0.000, 0.000, 0.000, 18:58:19.671, 1565909899671
228, 0.00, 0.00, -7786.36, -52375.77, -5403.49, 0.00, 0.00, 0.00, 0.000, 0.000, 0.000, 18:58:19.679, 1565909899679
229, 0.00, 0.00, -7755.41, -52353.53, -5385.85, 0.00, 0.00, 0.00, 0.000, 0.000, 0.000, 18:58:19.679, 1565909899679
230, 0.00, 0.00, -7732.74, -52332.27, -5376.94, 0.00, 0.00, 0.00, 0.000, 0.000, 0.000, 18:58:19.687, 1565909899687
231, 0.00, 0.00, -7768.95, -52358.94, -5398.97, 0.00, 0.00, 0.00, 0.000, 0.000, 0.000, 18:58:19.687, 1565909899687
232, 0.00, 0.00, -7780.40, -52368.66, -5396.94, 0.00, 0.00, 0.00, 0.000, 0.000, 0.000, 18:58:19.694, 1565909899694
233, 0.00, 0.00, -7764.30, -52360.73, -5389.54, 0.00, 0.00, 0.00, 0.000, 0.000, 0.000, 18:58:19.694, 1565909899694
234, 0.00, 0.00, -7747.49, -52346.27, -5384.80, 0.00, 0.00, 0.00, 0.258, 0.132, 0.932, 18:58:19.702, 1565909899702
235, 0.00, 0.00, -7773.36, -52360.88, -5400.32, 0.00, 0.00, 0.00, 0.000, 0.000, 0.000, 18:58:19.702, 1565909899702
236, 0.00, 0.00, -7793.61, -52381.07, -5408.32, 0.00, 0.00, 0.00, 0.000, 0.000, 0.000, 18:58:19.710, 1565909899710
237, 0.00, 0.00, -7777.31, -52373.11, -5398.88, 0.00, 0.00, 0.00, 0.000, 0.000, 0.000, 18:58:19.710, 1565909899710
238, 0.00, 0.00, -7739.09, -52343.07, -5379.60, 0.00, 0.00, 0.00, 0.000, 0.000, 0.000, 18:58:19.718, 1565909899718
239, 0.00, 0.00, -7743.67, -52340.54, -5383.91, 0.00, 0.00, 0.00, 0.000, 0.000, 0.000, 18:58:19.719, 1565909899719
240, 0.00, 0.00, -7776.57, -52366.45, -5397.97, 0.00, 0.00, 0.00, 0.000, 0.000, 0.000, 18:58:19.725, 1565909899725
241, 0.00, 0.00, -7775.17, -52366.13, -5392.76, 0.00, 0.00, 0.00, 0.000, 0.000, 0.000, 18:58:19.731, 1565909899731
242, 0.00, 0.00, -7742.93, -52339.65, -5376.13, 0.00, 0.00, 0.00, 0.000, 0.000, 0.000, 18:58:19.731, 1565909899731
243, 0.00, 0.00, -7747.14, -52340.25, -5384.74, 0.00, 0.00, 0.00, 0.000, 0.000, 0.000, 18:58:19.740, 1565909899740
244, 0.00, 0.00, -7779.23, -52367.99, -5401.05, 0.00, 0.00, 0.00, 0.254, 0.132, 0.934, 18:58:19.740, 1565909899740
245, 0.00, 0.00, -7779.66, -52369.89, -5397.77, 0.00, 0.00, 0.00, 0.000, 0.000, 0.000, 18:58:19.747, 1565909899747
246, 0.00, 0.00, -7739.60, -52341.35, -5376.53, 0.00, 0.00, 0.00, 0.000, 0.000, 0.000, 18:58:19.747, 1565909899747
247, 0.00, 0.00, -7715.73, -52319.91, -5368.20, 0.00, 0.00, 0.00, 0.000, 0.000, 0.000, 18:58:19.754, 1565909899754
248, 0.00, 0.00, -7750.15, -52346.18, -5383.95, 0.00, 0.00, 0.00, 0.000, 0.000, 0.000, 18:58:19.754, 1565909899754
249, 0.00, 0.00, -7774.54, -52369.20, -5393.50, 0.00, 0.00, 0.00, 0.000, 0.000, 0.000, 18:58:19.762, 1565909899762
250, 0.00, 0.00, -7753.93, -52353.62, -5381.90, 0.00, 0.00, 0.00, 0.000, 0.000, 0.000, 18:58:19.762, 1565909899762
251, 0.00, 0.00, -7744.54, -52340.77, -5378.81, 0.00, 0.00, 0.00, 0.000, 0.000, 0.000, 18:58:19.770, 1565909899770
252, 0.00, 0.00, -7787.59, -52370.18, -5400.05, 0.00, 0.00, 0.00, 0.000, 0.000, 0.000, 18:58:19.770, 1565909899770
253, 0.00, 0.00, -7802.84, -52386.14, -5405.97, 0.00, 0.00, 0.00, 0.256, 0.134, 0.938, 18:58:19.777, 1565909899777
254, 0.00, 0.00, -7778.03, -52369.42, -5394.44, 0.00, 0.00, 0.00, 0.000, 0.000, 0.000, 18:58:19.777, 1565909899777
255, 0.00, 0.00, -7742.47, -52340.83, -5379.55, 0.00, 0.00, 0.00, 0.000, 0.000, 0.000, 18:58:19.784, 1565909899784
0, 0.00, 0.00, -7761.15, -52354.63, -5391.22, 0.00, 0.00, 0.00, 0.000, 0.000, 0.000, 18:58:19.792, 1565909899792
1, 0.00, 0.00, -7771.32, -52366.40, -5394.66, 0.00, 0.00, 0.00, 0.000, 0.000, 0.000, 18:58:19.792, 1565909899792
2, 0.00, 0.00, -7756.59, -52354.42, -5382.68, 0.00, 0.00, 0.00, 0.000, 0.000, 0.000, 18:58:19.800, 1565909899800
3, 0.00, 0.00, -7728.45, -52332.23, -5369.81, 0.00, 0.00, 0.00, 0.000, 0.000, 0.000, 18:58:19.800, 1565909899800
4, 0.00, 0.00, -7754.33, -52347.67, -5384.29, 0.00, 0.00, 0.00, 0.000, 0.000, 0.000, 18:58:19.806, 1565909899806
5, 0.00, 0.00, -7782.85, -52371.21, -5394.35, 0.00, 0.00, 0.00, 0.000, 0.000, 0.000, 18:58:19.806, 1565909899806
6, 0.00, 0.00, -7777.83, -52371.21, -5391.53, 0.00, 0.00, 0.00, 0.000, 0.000, 0.000, 18:58:19.814, 1565909899814
7, 0.00, 0.00, -7739.74, -52340.18, -5372.67, 0.00, 0.00, 0.00, 0.258, 0.136, 0.936, 18:58:19.815, 1565909899815
8, 0.00, 0.00, -7751.50, -52344.23, -5381.58, 0.00, 0.00, 0.00, 0.000, 0.000, 0.000, 18:58:19.822, 1565909899822
9, 0.00, 0.00, -7783.61, -52372.71, -5399.35, 0.00, 0.00, 0.00, 0.000, 0.000, 0.000, 18:58:19.822, 1565909899822
10, 0.00, 0.00, -7780.71, -52372.80, -5395.35, 0.00, 0.00, 0.00, 0.000, 0.000, 0.000, 18:58:19.829, 1565909899829
11, 0.00, 0.00, -7749.48, -52350.67, -5381.81, 0.00, 0.00, 0.00, 0.000, 0.000, 0.000, 18:58:19.830, 1565909899830
12, 0.00, 0.00, -7748.95, -52346.91, -5385.47, 0.00, 0.00, 0.00, 0.000, 0.000, 0.000, 18:58:19.837, 1565909899837
13, 0.00, 0.00, -7781.00, -52371.86, -5396.76, 0.00, 0.00, 0.00, 0.000, 0.000, 0.000, 18:58:19.837, 1565909899837
14, 0.00, 0.00, -7783.75, -52376.64, -5396.76, 0.00, 0.00, 0.00, 0.000, 0.000, 0.000, 18:58:19.844, 1565909899844
15, 0.00, 0.00, -7752.77, -52354.55, -5382.28, 0.00, 0.00, 0.00, 0.000, 0.000, 0.000, 18:58:19.852, 1565909899852
16, 0.00, 0.00, -7747.70, -52346.60, -5382.90, 0.00, 0.00, 0.00, 0.000, 0.000, 0.000, 18:58:19.852, 1565909899852
17, 0.00, 0.00, -7783.17, -52373.80, -5401.05, 0.00, 0.00, 0.00, 0.264, 0.132, 0.934, 18:58:19.859, 1565909899859
18, 0.00, 0.00, -7783.95, -52381.02, -5402.35, 0.00, 0.00, 0.00, 0.000, 0.000, 0.000, 18:58:19.859, 1565909899859
19, 0.00, 0.00, -7749.57, -52352.79, -5381.63, 0.00, 0.00, 0.00, 0.000, 0.000, 0.000, 18:58:19.867, 1565909899867
20, 0.00, 0.00, -7731.92, -52332.23, -5372.47, 0.00, 0.00, 0.00, 0.000, 0.000, 0.000, 18:58:19.867, 1565909899867
