%OpenBCI Raw EEG Data
%Number of channels = 8
%Sample Rate = 250.0 Hz
%First Column = SampleIndex
%Last Column = Timestamp 
%Other Columns = EEG data in microvolts followed by Accel Data (in G) interleaved with Aux Data
0, 0.00, 0.00, 0.00, 0.00, 0.00, 0.00, 0.00, 0.00, 0.000, 0.000, 0.000, 18:30:07.498, 1565821807498
1, -23108.93, -33234.79, -76411.23, -71878.94, -69780.80, -187500.02, -24549.26, 13189.07, -0.046, 0.294, 0.936, 18:30:07.503, 1565821807503
2, -23108.78, -33203.61, -76408.70, -71860.99, -69770.59, -187500.02, -24545.14, 13191.02, 0.000, 0.000, 0.000, 18:30:07.511, 1565821807511
3, -23112.96, -33215.00, -76412.30, -71867.88, -69775.35, -187500.02, -24544.58, 13191.71, 0.000, 0.000, 0.000, 18:30:07.511, 1565821807511
4, -23118.95, -33246.16, -76432.57, -71886.36, -69785.97, -187500.02, -24549.23, 13188.80, 0.000, 0.000, 0.000, 18:30:07.517, 1565821807517
5, -23114.12, -33243.88, -76427.74, -71873.64, -69776.24, -187500.02, -24544.52, 13194.70, 0.000, 0.000, 0.000, 18:30:07.518, 1565821807518
6, -23112.44, -33211.09, -76415.54, -71864.23, -69774.14, -187500.02, -24542.86, 13196.04, 0.000, 0.000, 0.000, 18:30:07.526, 1565821807526
7, -23111.41, -33210.42, -76416.88, -71862.35, -69769.05, -187500.02, -24542.35, 13195.93, 0.000, 0.000, 0.000, 18:30:07.526, 1565821807526
8, -23109.22, -33231.14, -76424.57, -71865.88, -69769.11, -187500.02, -24541.59, 13197.18, -0.044, 0.288, 0.942, 18:30:07.534, 1565821807534
9, -23107.72, -33241.87, -76421.08, -71878.07, -69773.96, -187500.02, -24544.63, 13192.65, 0.000, 0.000, 0.000, 18:30:07.534, 1565821807534
10, -23105.45, -33208.59, -76426.76, -71880.44, -69774.14, -187500.02, -24542.24, 13194.30, 0.000, 0.000, 0.000, 18:30:07.540, 1565821807540
11, -23108.71, -33206.96, -76426.13, -71873.06, -69778.34, -187500.02, -24543.76, 13192.69, 0.000, 0.000, 0.000, 18:30:07.540, 1565821807540
12, -23114.05, -33232.75, -76415.31, -71868.37, -69785.66, -187500.02, -24553.41, 13181.92, 0.000, 0.000, 0.000, 18:30:07.548, 1565821807548
13, -23107.17, -33247.10, -76413.50, -71881.95, -69780.55, -187500.02, -24549.68, 13187.28, 0.000, 0.000, 0.000, 18:30:07.548, 1565821807548
14, -23107.03, -33217.35, -76413.50, -71869.71, -69764.09, -187500.02, -24545.79, 13190.50, 0.000, 0.000, 0.000, 18:30:07.558, 1565821807558
15, -23113.40, -33211.92, -76417.02, -71870.78, -69764.42, -187500.02, -24547.58, 13189.50, 0.000, 0.000, 0.000, 18:30:07.558, 1565821807558
16, -23118.74, -33233.69, -76417.20, -71870.58, -69774.14, -187500.02, -24551.31, 13187.33, 0.000, 0.000, 0.000, 18:30:07.563, 1565821807563
17, -23121.45, -33260.16, -76410.48, -71879.68, -69787.24, -187500.02, -24553.75, 13182.57, 0.000, 0.000, 0.000, 18:30:07.570, 1565821807570
18, -23119.91, -33236.46, -76413.34, -71883.54, -69784.42, -187500.02, -24551.67, 13184.89, -0.046, 0.296, 0.938, 18:30:07.570, 1565821807570
19, -23116.91, -33215.63, -76414.38, -71868.73, -69766.52, -187500.02, -24549.39, 13188.31, 0.000, 0.000, 0.000, 18:30:07.578, 1565821807578
20, -23111.79, -33224.37, -76412.81, -71866.33, -69764.84, -187500.02, -24543.33, 13194.48, 0.000, 0.000, 0.000, 18:30:07.578, 1565821807578
21, -23107.93, -33245.45, -76413.55, -71864.12, -69765.20, -187500.02, -24538.57, 13201.25, 0.000, 0.000, 0.000, 18:30:07.586, 1565821807586
22, -23113.47, -33235.07, -76425.26, -71872.84, -69772.51, -187500.02, -24542.77, 13197.99, 0.000, 0.000, 0.000, 18:30:07.586, 1565821807586
23, -23115.44, -33213.55, -76421.20, -71871.16, -69766.19, -187500.02, -24546.93, 13195.60, 0.000, 0.000, 0.000, 18:30:07.593, 1565821807593
24, -23115.86, -33223.27, -76423.34, -71874.47, -69767.59, -187500.02, -24547.47, 13195.53, 0.000, 0.000, 0.000, 18:30:07.593, 1565821807593
25, -23111.17, -33245.49, -76422.20, -71878.96, -69772.02, -187500.02, -24544.25, 13197.45, 0.000, 0.000, 0.000, 18:30:07.600, 1565821807600
26, -23104.66, -33234.67, -76410.58, -71874.09, -69779.17, -187500.02, -24538.21, 13203.38, 0.000, 0.000, 0.000, 18:30:07.601, 1565821807601
27, -23110.25, -33211.14, -76419.09, -71872.79, -69779.41, -187500.02, -24543.76, 13195.62, -0.050, 0.290, 0.934, 18:30:07.608, 1565821807608
28, -23112.51, -33217.91, -76424.59, -71873.53, -69772.29, -187500.02, -24547.02, 13189.29, 0.000, 0.000, 0.000, 18:30:07.608, 1565821807608
29, -23108.48, -33238.34, -76417.80, -71873.91, -69768.84, -187500.02, -24542.66, 13196.87, 0.000, 0.000, 0.000, 18:30:07.616, 1565821807616
30, -23103.79, -33237.85, -76412.86, -71865.86, -69758.02, -187500.02, -24536.11, 13204.65, 0.000, 0.000, 0.000, 18:30:07.616, 1565821807616
31, -23105.15, -33206.36, -76412.09, -71857.95, -69753.91, -187500.02, -24535.64, 13203.89, 0.000, 0.000, 0.000, 18:30:07.622, 1565821807622
32, -23108.73, -33210.13, -76415.60, -71865.98, -69766.43, -187500.02, -24539.91, 13196.51, 0.000, 0.000, 0.000, 18:30:07.630, 1565821807630
33, -23112.44, -33236.75, -76416.12, -71883.92, -69783.87, -187500.02, -24544.79, 13193.56, 0.000, 0.000, 0.000, 18:30:07.630, 1565821807630
34, -23109.45, -33248.00, -76424.26, -71883.37, -69780.42, -187500.02, -24541.97, 13198.57, 0.000, 0.000, 0.000, 18:30:07.638, 1565821807638
35, -23108.19, -33214.31, -76421.04, -71874.85, -69773.29, -187500.02, -24538.77, 13202.48, 0.000, 0.000, 0.000, 18:30:07.638, 1565821807638
36, -23106.81, -33207.67, -76408.30, -71858.60, -69756.88, -187500.02, -24539.55, 13201.90, 0.000, 0.000, 0.000, 18:30:07.646, 1565821807646
37, -23108.44, -33228.80, -76409.75, -71882.29, -69778.32, -187500.02, -24542.37, 13198.01, -0.046, 0.286, 0.936, 18:30:07.646, 1565821807646
38, -23107.37, -33249.80, -76415.88, -71876.44, -69778.34, -187500.02, -24539.20, 13202.59, 0.000, 0.000, 0.000, 18:30:07.652, 1565821807652
39, -23110.16, -33222.47, -76419.98, -71855.96, -69764.64, -187500.02, -24537.77, 13203.24, 0.000, 0.000, 0.000, 18:30:07.653, 1565821807653
40, -23109.74, -33210.42, -76428.39, -71875.74, -69775.77, -187500.02, -24542.79, 13196.83, 0.000, 0.000, 0.000, 18:30:07.661, 1565821807661
41, -23112.33, -33230.92, -76430.80, -71877.02, -69773.34, -187500.02, -24547.58, 13194.52, 0.000, 0.000, 0.000, 18:30:07.661, 1565821807661
42, -23108.93, -33252.93, -76414.60, -71872.66, -69768.45, -187500.02, -24544.72, 13199.67, 0.000, 0.000, 0.000, 18:30:07.669, 1565821807669
43, -23108.91, -33228.01, -76416.07, -71874.31, -69765.38, -187500.02, -24540.27, 13205.03, 0.000, 0.000, 0.000, 18:30:07.669, 1565821807669
44, -23111.17, -33212.34, -76417.51, -71858.91, -69758.92, -187500.02, -24542.17, 13202.88, 0.000, 0.000, 0.000, 18:30:07.676, 1565821807676
45, -23110.12, -33226.11, -76414.06, -71873.57, -69770.45, -187500.02, -24544.74, 13200.07, 0.000, 0.000, 0.000, 18:30:07.676, 1565821807676
46, -23110.41, -33251.88, -76423.30, -71862.55, -69764.76, -187500.02, -24545.30, 13200.45, 0.000, 0.000, 0.000, 18:30:07.683, 1565821807683
47, -23115.41, -33243.77, -76419.88, -71870.42, -69767.34, -187500.02, -24549.35, 13195.87, -0.042, 0.290, 0.938, 18:30:07.690, 1565821807690
48, -23122.07, -33222.56, -76415.05, -71876.32, -69769.98, -187500.02, -24551.67, 13190.84, 0.000, 0.000, 0.000, 18:30:07.690, 1565821807690
49, -23115.66, -33226.89, -76417.10, -71874.16, -69773.13, -187500.02, -24546.73, 13195.29, 0.000, 0.000, 0.000, 18:30:07.697, 1565821807697
50, -23112.69, -33250.14, -76409.80, -71870.67, -69776.84, -187500.02, -24546.93, 13194.77, 0.000, 0.000, 0.000, 18:30:07.697, 1565821807697
51, -23116.82, -33249.83, -76418.06, -71876.86, -69788.34, -187500.02, -24549.81, 13193.30, 0.000, 0.000, 0.000, 18:30:07.706, 1565821807706
52, -23121.49, -33224.59, -76420.03, -71873.75, -69779.41, -187500.02, -24553.26, 13189.09, 0.000, 0.000, 0.000, 18:30:07.706, 1565821807706
53, -23126.21, -33233.78, -76423.77, -71884.84, -69783.02, -187500.02, -24560.12, 13180.89, 0.000, 0.000, 0.000, 18:30:07.713, 1565821807713
54, -23121.11, -33255.04, -76418.76, -71877.89, -69777.09, -187500.02, -24556.05, 13187.26, 0.000, 0.000, 0.000, 18:30:07.713, 1565821807713
55, -23116.98, -33257.14, -76424.34, -71877.30, -69777.96, -187500.02, -24551.13, 13192.25, 0.000, 0.000, 0.000, 18:30:07.720, 1565821807720
56, -23117.65, -33224.05, -76424.16, -71887.70, -69784.40, -187500.02, -24549.79, 13193.70, 0.000, 0.000, 0.000, 18:30:07.720, 1565821807720
57, -23124.13, -33231.41, -76437.02, -71884.46, -69794.41, -187500.02, -24558.08, 13184.71, -0.044, 0.292, 0.942, 18:30:07.729, 1565821807729
58, -23122.52, -33254.37, -76438.25, -71884.13, -69785.56, -187500.02, -24560.48, 13181.40, 0.000, 0.000, 0.000, 18:30:07.729, 1565821807729
59, -23117.78, -33264.63, -76434.18, -71879.09, -69776.04, -187500.02, -24555.56, 13187.73, 0.000, 0.000, 0.000, 18:30:07.736, 1565821807736
60, -23118.74, -33232.68, -76433.80, -71889.29, -69787.11, -187500.02, -24553.75, 13185.92, 0.000, 0.000, 0.000, 18:30:07.736, 1565821807736
61, -23116.78, -33222.27, -76430.80, -71882.67, -69786.55, -187500.02, -24551.07, 13186.84, 0.000, 0.000, 0.000, 18:30:07.743, 1565821807743
62, -23115.95, -33240.17, -76427.79, -71877.87, -69785.25, -187500.02, -24550.84, 13190.08, 0.000, 0.000, 0.000, 18:30:07.743, 1565821807743
63, -23115.30, -33261.38, -76427.18, -71881.17, -69788.83, -187500.02, -24553.19, 13188.71, 0.000, 0.000, 0.000, 18:30:07.750, 1565821807750
64, -23111.35, -33230.58, -76423.34, -71871.23, -69772.31, -187500.02, -24545.52, 13199.93, 0.000, 0.000, 0.000, 18:30:07.758, 1565821807758
65, -23115.73, -33219.77, -76423.14, -71875.90, -69767.75, -187500.02, -24547.06, 13196.60, 0.000, 0.000, 0.000, 18:30:07.758, 1565821807758
66, -23109.71, -33232.50, -76420.61, -71873.53, -69772.53, -187500.02, -24546.28, 13196.54, 0.000, 0.000, 0.000, 18:30:07.767, 1565821807767
67, -23109.36, -33257.09, -76430.65, -71885.13, -69791.35, -187500.02, -24548.90, 13195.75, -0.042, 0.290, 0.940, 18:30:07.767, 1565821807767
68, -23109.60, -33236.11, -76426.27, -71872.81, -69771.55, -187500.02, -24548.07, 13195.71, 0.000, 0.000, 0.000, 18:30:07.773, 1565821807773
69, -23111.30, -33217.08, -76418.73, -71873.09, -69771.80, -187500.02, -24549.48, 13193.18, 0.000, 0.000, 0.000, 18:30:07.773, 1565821807773
70, -23114.86, -33233.49, -76421.80, -71895.63, -69806.22, -187500.02, -24557.97, 13182.21, 0.000, 0.000, 0.000, 18:30:07.780, 1565821807780
71, -23112.96, -33256.91, -76427.30, -71889.38, -69796.47, -187500.02, -24556.16, 13184.47, 0.000, 0.000, 0.000, 18:30:07.781, 1565821807781
72, -23104.46, -33239.84, -76413.03, -71869.98, -69775.95, -187500.02, -24547.78, 13193.76, 0.000, 0.000, 0.000, 18:30:07.788, 1565821807788
73, -23103.84, -33213.80, -76405.68, -71863.56, -69766.81, -187500.02, -24546.48, 13196.02, 0.000, 0.000, 0.000, 18:30:07.789, 1565821807789
74, -23112.51, -33228.44, -76415.41, -71873.20, -69775.64, -187500.02, -24552.25, 13190.12, 0.000, 0.000, 0.000, 18:30:07.796, 1565821807796
75, -23109.33, -33250.72, -76416.45, -71877.30, -69776.66, -187500.02, -24551.47, 13191.64, 0.000, 0.000, 0.000, 18:30:07.796, 1565821807796
76, -23107.23, -33248.71, -76419.41, -71878.42, -69772.38, -187500.02, -24548.50, 13193.23, 0.000, 0.000, 0.000, 18:30:07.803, 1565821807803
77, -23110.88, -33220.39, -76419.18, -71866.82, -69771.28, -187500.02, -24548.38, 13194.52, -0.038, 0.294, 0.936, 18:30:07.803, 1565821807803
78, -23113.22, -33224.82, -76412.07, -71862.17, -69762.45, -187500.02, -24549.77, 13192.29, 0.000, 0.000, 0.000, 18:30:07.810, 1565821807810
79, -23121.83, -33257.85, -76424.59, -71877.46, -69777.80, -187500.02, -24559.38, 13184.20, 0.000, 0.000, 0.000, 18:30:07.818, 1565821807818
80, -23121.22, -33268.02, -76430.87, -71898.16, -69799.17, -187500.02, -24560.65, 13183.95, 0.000, 0.000, 0.000, 18:30:07.818, 1565821807818
81, -23119.73, -33233.60, -76429.46, -71881.89, -69789.85, -187500.02, -24559.13, 13183.15, 0.000, 0.000, 0.000, 18:30:07.827, 1565821807827
82, -23117.85, -33229.24, -76418.51, -71862.11, -69766.66, -187500.02, -24553.50, 13191.80, 0.000, 0.000, 0.000, 18:30:07.827, 1565821807827
83, -23119.12, -33252.73, -76421.30, -71887.74, -69786.86, -187500.02, -24554.71, 13191.51, 0.000, 0.000, 0.000, 18:30:07.834, 1565821807834
84, -23118.56, -33268.25, -76431.01, -71894.63, -69795.16, -187500.02, -24554.44, 13189.76, 0.000, 0.000, 0.000, 18:30:07.834, 1565821807834
85, -23112.80, -33230.02, -76424.12, -71880.50, -69771.23, -187500.02, -24546.51, 13197.56, 0.000, 0.000, 0.000, 18:30:07.841, 1565821807841
86, -23115.53, -33222.29, -76425.24, -71878.11, -69775.02, -187500.02, -24546.48, 13196.40, -0.038, 0.294, 0.930, 18:30:07.841, 1565821807841
87, -23115.95, -33241.67, -76429.30, -71886.59, -69789.09, -187500.02, -24546.48, 13195.67, 0.000, 0.000, 0.000, 18:30:07.849, 1565821807849
88, -23110.88, -33258.77, -76424.27, -71862.87, -69766.25, -187500.02, -24544.05, 13199.11, 0.000, 0.000, 0.000, 18:30:07.849, 1565821807849
89, -23109.94, -33232.26, -76422.42, -71867.61, -69761.11, -187500.02, -24543.55, 13200.65, 0.000, 0.000, 0.000, 18:30:07.856, 1565821807856
90, -23113.18, -33217.91, -76425.02, -71869.53, -69765.31, -187500.02, -24543.53, 13200.45, 0.000, 0.000, 0.000, 18:30:07.856, 1565821807856
91, -23117.78, -33236.98, -76425.51, -71881.80, -69780.36, -187500.02, -24550.19, 13192.65, 0.000, 0.000, 0.000, 18:30:07.863, 1565821807863
92, -23116.66, -33261.79, -76429.20, -71888.04, -69788.98, -187500.02, -24553.97, 13188.94, 0.000, 0.000, 0.000, 18:30:07.863, 1565821807863
93, -23113.92, -33240.93, -76436.34, -71880.21, -69781.27, -187500.02, -24551.04, 13191.19, 0.000, 0.000, 0.000, 18:30:07.870, 1565821807870
94, -23117.16, -33222.45, -76429.71, -71883.68, -69779.64, -187500.02, -24553.08, 13190.01, 0.000, 0.000, 0.000, 18:30:07.878, 1565821807878
95, -23121.78, -33237.18, -76432.13, -71887.72, -69786.44, -187500.02, -24554.62, 13191.19, 0.000, 0.000, 0.000, 18:30:07.878, 1565821807878
96, -23118.74, -33260.22, -76422.53, -71877.84, -69783.75, -187500.02, -24553.88, 13191.28, -0.040, 0.298, 0.930, 18:30:07.886, 1565821807886
97, -23118.01, -33250.70, -76417.39, -71872.30, -69779.10, -187500.02, -24553.28, 13191.04, 0.000, 0.000, 0.000, 18:30:07.886, 1565821807886
98, -23118.34, -33226.63, -76423.56, -71877.02, -69778.86, -187500.02, -24555.29, 13186.14, 0.000, 0.000, 0.000, 18:30:07.893, 1565821807893
99, -23125.47, -33238.34, -76425.28, -71890.25, -69797.32, -187500.02, -24560.74, 13180.49, 0.000, 0.000, 0.000, 18:30:07.893, 1565821807893
100, -23123.97, -33263.15, -76422.49, -71889.71, -69795.16, -187500.02, -24559.78, 13184.35, 0.000, 0.000, 0.000, 18:30:07.901, 1565821807901
101, -23117.56, -33260.22, -76420.41, -71884.15, -69789.61, -187500.02, -24555.47, 13189.29, 0.000, 0.000, 0.000, 18:30:07.901, 1565821807901
102, -23115.50, -33227.86, -76422.84, -71883.23, -69785.50, -187500.02, -24553.77, 13190.30, 0.000, 0.000, 0.000, 18:30:07.908, 1565821807908
103, -23117.38, -33230.43, -76427.52, -71872.86, -69771.91, -187500.02, -24554.11, 13188.67, 0.000, 0.000, 0.000, 18:30:07.908, 1565821807908
104, -23120.58, -33256.73, -76433.58, -71880.28, -69774.14, -187500.02, -24556.56, 13187.48, 0.000, 0.000, 0.000, 18:30:07.916, 1565821807916
105, -23122.14, -33267.00, -76436.93, -71896.41, -69792.56, -187500.02, -24557.35, 13188.74, 0.000, 0.000, 0.000, 18:30:07.916, 1565821807916
106, -23124.09, -33236.89, -76430.65, -71891.27, -69792.07, -187500.02, -24558.64, 13185.81, -0.042, 0.296, 0.934, 18:30:07.924, 1565821807924
107, -23124.09, -33235.95, -76419.72, -71881.80, -69781.18, -187500.02, -24560.45, 13182.59, 0.000, 0.000, 0.000, 18:30:07.924, 1565821807924
108, -23126.59, -33260.42, -76428.63, -71882.07, -69780.83, -187500.02, -24563.61, 13181.00, 0.000, 0.000, 0.000, 18:30:07.931, 1565821807931
109, -23122.63, -33273.57, -76435.85, -71881.77, -69783.26, -187500.02, -24560.19, 13183.08, 0.000, 0.000, 0.000, 18:30:07.937, 1565821807937
110, -23122.70, -33239.41, -76423.49, -71886.54, -69793.81, -187500.02, -24556.34, 13186.59, 0.000, 0.000, 0.000, 18:30:07.938, 1565821807938
111, -23117.98, -33223.50, -76419.09, -71880.50, -69787.66, -187500.02, -24550.19, 13193.94, 0.000, 0.000, 0.000, 18:30:07.946, 1565821807946
112, -23114.99, -33239.88, -76419.41, -71876.77, -69774.88, -187500.02, -24548.67, 13194.14, 0.000, 0.000, 0.000, 18:30:07.946, 1565821807946
113, -23112.62, -33262.01, -76426.63, -71879.05, -69783.73, -187500.02, -24546.71, 13195.37, 0.000, 0.000, 0.000, 18:30:07.953, 1565821807953
114, -23113.96, -33236.13, -76430.05, -71881.51, -69781.25, -187500.02, -24548.05, 13192.11, 0.000, 0.000, 0.000, 18:30:07.954, 1565821807954
115, -23113.92, -33219.88, -76429.40, -71878.09, -69772.16, -187500.02, -24548.52, 13192.45, 0.000, 0.000, 0.000, 18:30:07.961, 1565821807961
116, -23116.11, -33236.11, -76430.85, -71872.73, -69775.66, -187500.02, -24551.47, 13190.75, -0.038, 0.292, 0.934, 18:30:07.961, 1565821807961
117, -23119.50, -33266.64, -76435.30, -71882.83, -69784.02, -187500.02, -24555.16, 13189.29, 0.000, 0.000, 0.000, 18:30:07.968, 1565821807968
118, -23124.64, -33258.07, -76437.15, -71892.62, -69796.70, -187500.02, -24561.08, 13185.20, 0.000, 0.000, 0.000, 18:30:07.968, 1565821807968
119, -23135.78, -33247.08, -76440.86, -71903.97, -69812.41, -187500.02, -24571.29, 13175.03, 0.000, 0.000, 0.000, 18:30:07.976, 1565821807976
120, -23129.74, -33250.92, -76434.36, -71896.26, -69803.63, -187500.02, -24564.05, 13180.55, 0.000, 0.000, 0.000, 18:30:07.976, 1565821807976
121, -23115.59, -33261.72, -76429.17, -71883.70, -69786.97, -187500.02, -24551.98, 13190.30, 0.000, 0.000, 0.000, 18:30:07.985, 1565821807985
122, -23116.31, -33254.68, -76438.65, -71880.13, -69775.66, -187500.02, -24551.13, 13191.95, 0.000, 0.000, 0.000, 18:30:07.985, 1565821807985
123, -23120.24, -33229.71, -76432.44, -71880.23, -69775.57, -187500.02, -24555.04, 13191.19, 0.000, 0.000, 0.000, 18:30:07.991, 1565821807991
124, -23123.19, -33241.85, -76430.20, -71903.48, -69792.63, -187500.02, -24561.44, 13184.71, 0.000, 0.000, 0.000, 18:30:07.991, 1565821807991
125, -23122.12, -33266.52, -76426.13, -71895.79, -69794.70, -187500.02, -24561.53, 13184.91, 0.000, 0.000, 0.000, 18:30:07.999, 1565821807999
126, -23118.95, -33263.26, -76427.30, -71872.68, -69771.59, -187500.02, -24557.41, 13189.23, -0.042, 0.292, 0.938, 18:30:08.006, 1565821808006
127, -23123.04, -33236.93, -76428.41, -71895.19, -69800.12, -187500.02, -24562.29, 13180.33, 0.000, 0.000, 0.000, 18:30:08.006, 1565821808006
128, -23125.54, -33242.07, -76424.45, -71901.91, -69812.88, -187500.02, -24566.44, 13173.36, 0.000, 0.000, 0.000, 18:30:08.013, 1565821808013
129, -23120.40, -33260.20, -76425.30, -71882.38, -69789.63, -187500.02, -24559.13, 13181.65, 0.000, 0.000, 0.000, 18:30:08.014, 1565821808014
130, -23120.69, -33270.50, -76435.07, -71887.32, -69788.54, -187500.02, -24558.49, 13185.09, 0.000, 0.000, 0.000, 18:30:08.020, 1565821808020
131, -23121.85, -33238.65, -76426.65, -71879.59, -69782.34, -187500.02, -24555.98, 13188.07, 0.000, 0.000, 0.000, 18:30:08.020, 1565821808020
132, -23122.19, -33235.77, -76415.72, -71871.61, -69785.92, -187500.02, -24557.28, 13184.18, 0.000, 0.000, 0.000, 18:30:08.028, 1565821808028
133, -23119.12, -33253.61, -76424.88, -71880.66, -69792.98, -187500.02, -24558.44, 13183.89, 0.000, 0.000, 0.000, 18:30:08.028, 1565821808028
134, -23112.96, -33267.87, -76433.33, -71882.70, -69786.08, -187500.02, -24553.53, 13188.49, 0.000, 0.000, 0.000, 18:30:08.036, 1565821808036
135, -23109.85, -33235.90, -76425.84, -71882.49, -69785.41, -187500.02, -24547.54, 13193.81, 0.000, 0.000, 0.000, 18:30:08.036, 1565821808036
136, -23118.39, -33232.24, -76429.04, -71889.42, -69782.32, -187500.02, -24553.32, 13188.69, -0.042, 0.290, 0.932, 18:30:08.044, 1565821808044
137, -23122.46, -33252.18, -76432.34, -71887.84, -69779.28, -187500.02, -24553.75, 13190.55, 0.000, 0.000, 0.000, 18:30:08.044, 1565821808044
138, -23121.67, -33275.49, -76428.37, -71886.16, -69781.79, -187500.02, -24552.14, 13193.00, 0.000, 0.000, 0.000, 18:30:08.051, 1565821808051
139, -23119.48, -33249.16, -76423.95, -71878.72, -69770.68, -187500.02, -24550.95, 13194.77, 0.000, 0.000, 0.000, 18:30:08.051, 1565821808051
140, -23124.06, -33233.20, -76429.02, -71879.79, -69770.50, -187500.02, -24554.33, 13191.31, 0.000, 0.000, 0.000, 18:30:08.058, 1565821808058
141, -23123.57, -33246.97, -76419.07, -71878.13, -69778.57, -187500.02, -24554.80, 13191.22, 0.000, 0.000, 0.000, 18:30:08.066, 1565821808066
142, -23119.59, -33274.17, -76417.64, -71871.74, -69773.92, -187500.02, -24555.47, 13191.87, 0.000, 0.000, 0.000, 18:30:08.066, 1565821808066
143, -23115.88, -33255.95, -76422.27, -71870.29, -69768.89, -187500.02, -24553.97, 13192.63, 0.000, 0.000, 0.000, 18:30:08.074, 1565821808074
144, -23121.11, -33234.27, -76419.41, -71878.91, -69784.76, -187500.02, -24556.90, 13189.56, 0.000, 0.000, 0.000, 18:30:08.074, 1565821808074
145, -23125.63, -33248.20, -76424.99, -71891.19, -69806.66, -187500.02, -24564.01, 13181.78, -0.040, 0.292, 0.938, 18:30:08.080, 1565821808080
146, -23119.53, -33269.34, -76427.79, -71890.25, -69796.38, -187500.02, -24560.86, 13184.76, 0.000, 0.000, 0.000, 18:30:08.080, 1565821808080
147, -23112.04, -33257.63, -76432.34, -71885.89, -69773.83, -187500.02, -24553.10, 13192.09, 0.000, 0.000, 0.000, 18:30:08.088, 1565821808088
148, -23115.79, -33231.97, -76429.13, -71880.91, -69781.77, -187500.02, -24555.00, 13189.58, 0.000, 0.000, 0.000, 18:30:08.088, 1565821808088
149, -23118.34, -33241.65, -76425.20, -71882.83, -69792.70, -187500.02, -24561.19, 13181.52, 0.000, 0.000, 0.000, 18:30:08.096, 1565821808096
150, -23113.92, -33260.64, -76433.38, -71887.01, -69790.62, -187500.02, -24553.77, 13191.06, 0.000, 0.000, 0.000, 18:30:08.096, 1565821808096
151, -23117.43, -33266.32, -76439.74, -71885.13, -69788.27, -187500.02, -24553.66, 13190.46, 0.000, 0.000, 0.000, 18:30:08.104, 1565821808104
152, -23113.65, -33230.45, -76425.87, -71879.99, -69771.80, -187500.02, -24547.71, 13197.10, 0.000, 0.000, 0.000, 18:30:08.104, 1565821808104
153, -23118.21, -33236.68, -76428.13, -71893.02, -69793.56, -187500.02, -24553.44, 13190.70, 0.000, 0.000, 0.000, 18:30:08.111, 1565821808111
154, -23121.18, -33262.50, -76432.62, -71901.42, -69800.92, -187500.02, -24559.52, 13184.94, 0.000, 0.000, 0.000, 18:30:08.111, 1565821808111
155, -23115.12, -33271.26, -76432.84, -71891.32, -69792.56, -187500.02, -24556.41, 13189.67, -0.040, 0.294, 0.940, 18:30:08.118, 1565821808118
156, -23112.42, -33235.68, -76433.22, -71876.97, -69768.13, -187500.02, -24552.03, 13193.88, 0.000, 0.000, 0.000, 18:30:08.127, 1565821808127
157, -23115.32, -33232.44, -76435.72, -71884.64, -69772.40, -187500.02, -24553.30, 13194.37, 0.000, 0.000, 0.000, 18:30:08.127, 1565821808127
158, -23118.14, -33255.68, -76441.09, -71895.19, -69779.04, -187500.02, -24556.77, 13191.04, 0.000, 0.000, 0.000, 18:30:08.133, 1565821808133
159, -23114.94, -33273.63, -76445.34, -71889.66, -69781.34, -187500.02, -24556.52, 13189.63, 0.000, 0.000, 0.000, 18:30:08.133, 1565821808133
160, -23115.57, -33246.95, -76437.53, -71883.41, -69781.67, -187500.02, -24557.14, 13188.07, 0.000, 0.000, 0.000, 18:30:08.141, 1565821808141
161, -23119.28, -33237.29, -76428.19, -71882.34, -69778.92, -187500.02, -24560.70, 13184.73, 0.000, 0.000, 0.000, 18:30:08.141, 1565821808141
162, -23120.55, -33252.98, -76430.80, -71878.02, -69776.60, -187500.02, -24562.42, 13185.25, 0.000, 0.000, 0.000, 18:30:08.148, 1565821808148
163, -23121.18, -33277.63, -76436.33, -71887.52, -69792.94, -187500.02, -24562.35, 13187.39, 0.000, 0.000, 0.000, 18:30:08.149, 1565821808149
164, -23124.26, -33258.75, -76436.30, -71888.93, -69783.91, -187500.02, -24564.03, 13184.71, 0.000, 0.000, 0.000, 18:30:08.156, 1565821808156
165, -23127.64, -33243.21, -76433.77, -71897.55, -69778.66, -187500.02, -24567.90, 13180.67, -0.038, 0.294, 0.938, 18:30:08.156, 1565821808156
166, -23132.76, -33261.34, -76436.03, -71888.33, -69786.66, -187500.02, -24572.66, 13178.10, 0.000, 0.000, 0.000, 18:30:08.163, 1565821808163
167, -23130.88, -33284.29, -76439.92, -71876.34, -69784.18, -187500.02, -24571.43, 13179.46, 0.000, 0.000, 0.000, 18:30:08.163, 1565821808163
168, -23124.91, -33266.01, -76433.93, -71877.59, -69771.05, -187500.02, -24564.86, 13185.72, 0.000, 0.000, 0.000, 18:30:08.171, 1565821808171
169, -23126.81, -33241.78, -76435.99, -71880.68, -69772.02, -187500.02, -24565.77, 13182.97, 0.000, 0.000, 0.000, 18:30:08.171, 1565821808171
170, -23124.60, -33249.05, -76422.04, -71884.26, -69771.57, -187500.02, -24564.21, 13186.28, 0.000, 0.000, 0.000, 18:30:08.178, 1565821808178
171, -23123.73, -33275.24, -76427.38, -71880.26, -69772.58, -187500.02, -24565.10, 13186.03, 0.000, 0.000, 0.000, 18:30:08.185, 1565821808185
172, -23121.18, -33269.30, -76429.33, -71882.05, -69775.86, -187500.02, -24562.20, 13188.69, 0.000, 0.000, 0.000, 18:30:08.185, 1565821808185
173, -23120.26, -33236.89, -76426.18, -71872.86, -69771.95, -187500.02, -24559.13, 13192.04, 0.000, 0.000, 0.000, 18:30:08.193, 1565821808193
174, -23124.09, -33243.86, -76429.46, -71885.76, -69781.38, -187500.02, -24563.07, 13188.45, 0.000, 0.000, 0.000, 18:30:08.193, 1565821808193
175, -23121.38, -33266.35, -76422.55, -71875.98, -69780.91, -187500.02, -24561.01, 13191.57, -0.040, 0.290, 0.940, 18:30:08.201, 1565821808201
176, -23122.01, -33273.41, -76425.28, -71885.45, -69785.41, -187500.02, -24561.19, 13189.96, 0.000, 0.000, 0.000, 18:30:08.201, 1565821808201
177, -23119.59, -33239.93, -76425.02, -71893.52, -69780.40, -187500.02, -24557.35, 13193.07, 0.000, 0.000, 0.000, 18:30:08.209, 1565821808209
178, -23114.14, -33235.79, -76428.59, -71885.71, -69777.02, -187500.02, -24556.34, 13190.61, 0.000, 0.000, 0.000, 18:30:08.209, 1565821808209
179, -23113.58, -33256.96, -76430.38, -71870.91, -69767.10, -187500.02, -24556.94, 13188.27, 0.000, 0.000, 0.000, 18:30:08.215, 1565821808215
180, -23109.11, -33266.82, -76428.70, -71865.86, -69757.49, -187500.02, -24554.44, 13191.44, 0.000, 0.000, 0.000, 18:30:08.215, 1565821808215
181, -23110.14, -33236.51, -76426.91, -71867.83, -69760.98, -187500.02, -24552.18, 13194.55, 0.000, 0.000, 0.000, 18:30:08.223, 1565821808223
182, -23117.02, -33235.07, -76435.84, -71878.49, -69777.72, -187500.02, -24555.83, 13191.24, 0.000, 0.000, 0.000, 18:30:08.223, 1565821808223
183, -23117.31, -33253.74, -76433.89, -71878.38, -69775.91, -187500.02, -24556.10, 13193.21, 0.000, 0.000, 0.000, 18:30:08.231, 1565821808231
184, -23112.51, -33270.14, -76427.83, -71873.48, -69764.20, -187500.02, -24550.06, 13201.92, 0.000, 0.000, 0.000, 18:30:08.232, 1565821808232
185, -23114.32, -33242.88, -76426.24, -71877.46, -69765.60, -187500.02, -24548.23, 13201.48, -0.046, 0.296, 0.934, 18:30:08.238, 1565821808238
186, -23119.35, -33233.73, -76423.83, -71896.53, -69788.89, -187500.02, -24552.34, 13194.82, 0.000, 0.000, 0.000, 18:30:08.238, 1565821808238
187, -23120.00, -33252.40, -76427.23, -71897.05, -69791.02, -187500.02, -24555.78, 13190.72, 0.000, 0.000, 0.000, 18:30:08.245, 1565821808245
188, -23112.87, -33271.55, -76423.83, -71874.24, -69758.80, -187500.02, -24550.91, 13196.38, 0.000, 0.000, 0.000, 18:30:08.253, 1565821808253
189, -23113.31, -33251.95, -76423.27, -71882.98, -69760.75, -187500.02, -24552.70, 13193.52, 0.000, 0.000, 0.000, 18:30:08.253, 1565821808253
190, -23116.31, -33234.50, -76424.66, -71884.88, -69767.33, -187500.02, -24554.04, 13192.18, 0.000, 0.000, 0.000, 18:30:08.261, 1565821808261
191, -23118.95, -33249.47, -76435.19, -71883.01, -69773.90, -187500.02, -24557.66, 13190.05, 0.000, 0.000, 0.000, 18:30:08.261, 1565821808261
192, -23118.68, -33273.34, -76433.24, -71865.33, -69766.05, -187500.02, -24557.44, 13191.53, 0.000, 0.000, 0.000, 18:30:08.268, 1565821808268
193, -23113.69, -33257.14, -76416.32, -71867.72, -69761.94, -187500.02, -24551.74, 13195.53, 0.000, 0.000, 0.000, 18:30:08.268, 1565821808268
194, -23115.97, -33232.98, -76418.17, -71869.30, -69761.78, -187500.02, -24551.58, 13196.94, 0.000, 0.000, 0.000, 18:30:08.275, 1565821808275
195, -23122.19, -33249.34, -76422.27, -71878.76, -69776.34, -187500.02, -24557.64, 13194.23, -0.044, 0.298, 0.932, 18:30:08.276, 1565821808276
196, -23123.97, -33278.01, -76429.42, -71881.35, -69780.73, -187500.02, -24561.13, 13191.40, 0.000, 0.000, 0.000, 18:30:08.284, 1565821808284
197, -23120.40, -33273.23, -76422.71, -71871.43, -69765.73, -187500.02, -24557.23, 13194.37, 0.000, 0.000, 0.000, 18:30:08.284, 1565821808284
198, -23119.17, -33240.21, -76417.55, -71865.64, -69761.54, -187500.02, -24552.36, 13199.78, 0.000, 0.000, 0.000, 18:30:08.292, 1565821808292
199, -23120.11, -33243.50, -76416.56, -71872.30, -69761.29, -187500.02, -24554.13, 13197.07, 0.000, 0.000, 0.000, 18:30:08.292, 1565821808292
200, -23124.20, -33271.55, -76415.67, -71881.66, -69769.42, -187500.02, -24558.80, 13192.13, 0.000, 0.000, 0.000, 18:30:08.298, 1565821808298
201, -23123.59, -33280.18, -76433.33, -71873.62, -69764.91, -187500.02, -24557.84, 13193.03, 0.000, 0.000, 0.000, 18:30:08.298, 1565821808298
202, -23119.37, -33242.21, -76438.80, -71870.13, -69750.34, -187500.02, -24550.39, 13200.76, 0.000, 0.000, 0.000, 18:30:08.305, 1565821808305
203, -23117.16, -33237.40, -76419.88, -71867.77, -69754.92, -187500.02, -24551.13, 13198.53, 0.000, 0.000, 0.000, 18:30:08.313, 1565821808313
204, -23118.05, -33259.37, -76424.08, -71872.88, -69764.24, -187500.02, -24555.11, 13193.03, 0.000, 0.000, 0.000, 18:30:08.313, 1565821808313
205, -23116.73, -33271.18, -76421.82, -71872.10, -69759.28, -187500.02, -24551.54, 13196.67, -0.044, 0.294, 0.940, 18:30:08.321, 1565821808321
206, -23118.23, -33241.65, -76420.12, -71879.72, -69769.74, -187500.02, -24550.13, 13195.31, 0.000, 0.000, 0.000, 18:30:08.321, 1565821808321
207, -23119.10, -33237.60, -76422.34, -71882.11, -69773.92, -187500.02, -24553.08, 13194.44, 0.000, 0.000, 0.000, 18:30:08.328, 1565821808328
208, -23120.89, -33258.66, -76425.41, -71880.91, -69772.40, -187500.02, -24556.79, 13191.95, 0.000, 0.000, 0.000, 18:30:08.328, 1565821808328
209, -23114.03, -33274.28, -76432.34, -71882.72, -69783.28, -187500.02, -24552.43, 13197.01, 0.000, 0.000, 0.000, 18:30:08.336, 1565821808336
210, -23113.02, -33246.21, -76429.71, -71877.77, -69766.74, -187500.02, -24547.06, 13202.57, 0.000, 0.000, 0.000, 18:30:08.336, 1565821808336
211, -23117.40, -33236.04, -76424.52, -71871.54, -69755.55, -187500.02, -24552.03, 13198.88, 0.000, 0.000, 0.000, 18:30:08.344, 1565821808344
212, -23118.81, -33254.95, -76426.58, -71883.97, -69775.23, -187500.02, -24556.90, 13193.81, 0.000, 0.000, 0.000, 18:30:08.345, 1565821808345
213, -23119.35, -33279.36, -76428.70, -71889.65, -69787.27, -187500.02, -24555.34, 13196.65, 0.000, 0.000, 0.000, 18:30:08.351, 1565821808351
214, -23120.76, -33260.38, -76426.58, -71880.84, -69779.62, -187500.02, -24553.57, 13197.32, -0.044, 0.294, 0.940, 18:30:08.351, 1565821808351
215, -23118.54, -33233.69, -76413.80, -71870.11, -69750.49, -187500.02, -24548.61, 13200.54, 0.000, 0.000, 0.000, 18:30:08.359, 1565821808359
216, -23114.92, -33242.99, -76416.74, -71871.49, -69747.59, -187500.02, -24548.99, 13198.03, 0.000, 0.000, 0.000, 18:30:08.359, 1565821808359
217, -23111.61, -33266.28, -76412.70, -71870.73, -69759.70, -187500.02, -24549.52, 13198.17, 0.000, 0.000, 0.000, 18:30:08.366, 1565821808366
218, -23105.31, -33249.98, -76410.04, -71857.70, -69746.80, -187500.02, -24541.16, 13208.72, 0.000, 0.000, 0.000, 18:30:08.374, 1565821808374
219, -23106.41, -33222.43, -76411.38, -71863.34, -69752.57, -187500.02, -24538.35, 13209.05, 0.000, 0.000, 0.000, 18:30:08.374, 1565821808374
220, -23114.07, -33237.33, -76417.05, -71875.45, -69765.34, -187500.02, -24545.43, 13201.10, 0.000, 0.000, 0.000, 18:30:08.380, 1565821808380
221, -23109.45, -33259.66, -76419.88, -71869.02, -69752.69, -187500.02, -24543.76, 13203.38, 0.000, 0.000, 0.000, 18:30:08.380, 1565821808380
222, -23107.48, -33257.36, -76417.57, -71868.41, -69748.70, -187500.02, -24541.25, 13205.72, 0.000, 0.000, 0.000, 18:30:08.388, 1565821808388
223, -23107.79, -33226.22, -76419.45, -71868.14, -69752.73, -187500.02, -24540.36, 13205.99, 0.000, 0.000, 0.000, 18:30:08.389, 1565821808389
224, -23108.93, -33229.73, -76420.50, -71874.52, -69757.87, -187500.02, -24540.49, 13205.86, -0.046, 0.294, 0.940, 18:30:08.396, 1565821808396
225, -23110.50, -33256.51, -76424.61, -71873.02, -69767.44, -187500.02, -24544.25, 13202.68, 0.000, 0.000, 0.000, 18:30:08.396, 1565821808396
226, -23107.32, -33262.66, -76421.15, -71870.71, -69765.58, -187500.02, -24542.51, 13203.49, 0.000, 0.000, 0.000, 18:30:08.403, 1565821808403
227, -23107.37, -33227.25, -76410.64, -71864.03, -69752.28, -187500.02, -24538.88, 13206.68, 0.000, 0.000, 0.000, 18:30:08.403, 1565821808403
228, -23102.54, -33221.08, -76412.37, -71866.13, -69752.57, -187500.02, -24536.27, 13209.84, 0.000, 0.000, 0.000, 18:30:08.411, 1565821808411
229, -23100.24, -33242.09, -76410.38, -71873.87, -69748.46, -187500.02, -24537.23, 13206.82, 0.000, 0.000, 0.000, 18:30:08.411, 1565821808411
230, -23101.38, -33260.07, -76410.95, -71865.41, -69747.21, -187500.02, -24537.99, 13206.35, 0.000, 0.000, 0.000, 18:30:08.419, 1565821808419
231, -23101.58, -33227.45, -76411.36, -71858.66, -69739.52, -187500.02, -24529.85, 13216.63, 0.000, 0.000, 0.000, 18:30:08.419, 1565821808419
232, -23100.84, -33217.53, -76415.43, -71862.31, -69743.84, -187500.02, -24531.37, 13215.54, 0.000, 0.000, 0.000, 18:30:08.426, 1565821808426
233, -23099.61, -33234.94, -76412.68, -71863.00, -69755.52, -187500.02, -24534.03, 13211.51, 0.000, 0.000, 0.000, 18:30:08.433, 1565821808433
234, -23098.52, -33257.65, -76424.99, -71874.52, -69770.45, -187500.02, -24536.45, 13210.04, -0.046, 0.294, 0.938, 18:30:08.433, 1565821808433
235, -23099.23, -33232.59, -76436.52, -71869.28, -69757.06, -187500.02, -24534.79, 13211.62, 0.000, 0.000, 0.000, 18:30:08.441, 1565821808441
236, -23097.04, -33214.07, -76399.02, -71852.77, -69732.99, -187500.02, -24531.78, 13215.54, 0.000, 0.000, 0.000, 18:30:08.441, 1565821808441
237, -23097.82, -33230.43, -76396.61, -71872.45, -69756.82, -187500.02, -24532.74, 13214.89, 0.000, 0.000, 0.000, 18:30:08.448, 1565821808448
238, -23100.84, -33257.72, -76406.10, -71873.28, -69776.42, -187500.02, -24534.03, 13214.51, 0.000, 0.000, 0.000, 18:30:08.449, 1565821808449
239, -23098.67, -33241.31, -76402.51, -71868.16, -69768.60, -187500.02, -24531.80, 13216.12, 0.000, 0.000, 0.000, 18:30:08.456, 1565821808456
240, -23099.21, -33220.10, -76407.91, -71865.04, -69746.07, -187500.02, -24532.13, 13215.74, 0.000, 0.000, 0.000, 18:30:08.457, 1565821808457
241, -23102.58, -33232.28, -76411.42, -71870.67, -69751.61, -187500.02, -24535.71, 13213.57, 0.000, 0.000, 0.000, 18:30:08.464, 1565821808464
242, -23101.33, -33257.65, -76417.05, -71877.98, -69764.33, -187500.02, -24535.71, 13212.72, 0.000, 0.000, 0.000, 18:30:08.464, 1565821808464
243, -23098.31, -33248.87, -76421.26, -71880.28, -69767.30, -187500.02, -24532.85, 13214.44, 0.000, 0.000, 0.000, 18:30:08.471, 1565821808471
244, -23099.16, -33220.66, -76416.50, -71868.77, -69758.32, -187500.02, -24531.96, 13216.14, -0.044, 0.290, 0.936, 18:30:08.471, 1565821808471
245, -23100.01, -33229.69, -76403.16, -71854.71, -69741.22, -187500.02, -24535.24, 13212.58, 0.000, 0.000, 0.000, 18:30:08.480, 1565821808480
246, -23100.10, -33255.19, -76409.13, -71865.93, -69753.06, -187500.02, -24538.79, 13205.54, 0.000, 0.000, 0.000, 18:30:08.480, 1565821808480
247, -23099.83, -33257.92, -76414.15, -71867.54, -69756.02, -187500.02, -24538.53, 13209.05, 0.000, 0.000, 0.000, 18:30:08.485, 1565821808485
248, -23096.75, -33223.16, -76401.88, -71862.51, -69747.32, -187500.02, -24533.90, 13214.02, 0.000, 0.000, 0.000, 18:30:08.486, 1565821808486
249, -23095.41, -33223.05, -76403.16, -71873.30, -69751.43, -187500.02, -24532.40, 13212.92, 0.000, 0.000, 0.000, 18:30:08.493, 1565821808493
250, -23100.39, -33248.09, -76412.88, -71867.38, -69748.93, -187500.02, -24534.59, 13213.30, 0.000, 0.000, 0.000, 18:30:08.501, 1565821808501
251, -23100.24, -33258.99, -76405.84, -71849.50, -69735.20, -187500.02, -24534.26, 13214.69, 0.000, 0.000, 0.000, 18:30:08.501, 1565821808501
252, -23096.62, -33223.14, -76403.05, -71865.46, -69734.76, -187500.02, -24531.87, 13217.77, 0.000, 0.000, 0.000, 18:30:08.510, 1565821808510
253, -23099.39, -33222.09, -76408.90, -71872.14, -69748.19, -187500.02, -24536.22, 13214.64, 0.000, 0.000, 0.000, 18:30:08.510, 1565821808510
254, -23100.10, -33242.72, -76398.33, -71852.83, -69745.94, -187500.02, -24538.04, 13211.65, -0.048, 0.292, 0.936, 18:30:08.515, 1565821808515
255, -23098.94, -33258.79, -76405.77, -71854.20, -69741.59, -187500.02, -24534.79, 13216.32, 0.000, 0.000, 0.000, 18:30:08.516, 1565821808516
0, -23096.32, -33229.76, -76411.94, -71873.17, -69761.73, -187500.02, -24534.26, 13215.69, 0.000, 0.000, 0.000, 18:30:08.523, 1565821808523
1, -23095.27, -33216.90, -76410.09, -71870.38, -69748.68, -187500.02, -24531.80, 13217.44, 0.000, 0.000, 0.000, 18:30:08.524, 1565821808524
2, -23097.49, -33233.87, -76399.87, -71846.44, -69728.41, -187500.02, -24531.82, 13218.55, 0.000, 0.000, 0.000, 18:30:08.531, 1565821808531
3, -23096.30, -33258.37, -76401.08, -71860.54, -69741.69, -187500.02, -24534.03, 13217.03, 0.000, 0.000, 0.000, 18:30:08.531, 1565821808531
4, -23090.94, -33230.18, -76403.47, -71860.43, -69739.38, -187500.02, -24526.86, 13223.34, 0.000, 0.000, 0.000, 18:30:08.538, 1565821808538
5, -23093.84, -33211.72, -76408.41, -71860.25, -69736.97, -187500.02, -24526.23, 13222.35, 0.000, 0.000, 0.000, 18:30:08.539, 1565821808539
6, -23094.36, -33226.36, -76410.42, -71872.34, -69748.77, -187500.02, -24528.33, 13218.06, 0.000, 0.000, 0.000, 18:30:08.547, 1565821808547
7, -23095.03, -33254.79, -76405.39, -71873.55, -69762.32, -187500.02, -24532.69, 13212.76, 0.000, 0.000, 0.000, 18:30:08.547, 1565821808547
8, -23094.96, -33242.16, -76409.46, -71867.52, -69761.09, -187500.02, -24533.36, 13211.04, -0.046, 0.294, 0.938, 18:30:08.553, 1565821808553
9, -23092.39, -33214.98, -76402.46, -71860.05, -69750.25, -187500.02, -24530.75, 13212.12, 0.000, 0.000, 0.000, 18:30:08.561, 1565821808561
10, -23096.08, -33229.15, -76411.83, -71864.61, -69748.17, -187500.02, -24536.52, 13204.92, 0.000, 0.000, 0.000, 18:30:08.561, 1565821808561
11, -23096.71, -33257.36, -76415.60, -71869.06, -69747.21, -187500.02, -24535.87, 13210.73, 0.000, 0.000, 0.000, 18:30:08.568, 1565821808568
12, -23095.34, -33250.48, -76415.78, -71858.60, -69744.75, -187500.02, -24530.08, 13220.41, 0.000, 0.000, 0.000, 18:30:08.568, 1565821808568
13, -23092.12, -33218.22, -76397.88, -71857.10, -69749.20, -187500.02, -24526.39, 13222.98, 0.000, 0.000, 0.000, 18:30:08.576, 1565821808576
14, -23091.72, -33222.54, -76395.16, -71852.81, -69750.83, -187500.02, -24527.42, 13220.18, 0.000, 0.000, 0.000, 18:30:08.576, 1565821808576
15, -23090.18, -33245.89, -76392.91, -71854.11, -69743.54, -187500.02, -24529.25, 13218.67, 0.000, 0.000, 0.000, 18:30:08.584, 1565821808584
16, -23088.68, -33250.03, -76395.80, -71845.01, -69726.47, -187500.02, -24529.38, 13217.79, 0.000, 0.000, 0.000, 18:30:08.584, 1565821808584
17, -23089.87, -33220.43, -76399.71, -71851.38, -69725.62, -187500.02, -24529.88, 13218.44, -0.048, 0.298, 0.938, 18:30:08.592, 1565821808592
18, -23094.43, -33225.31, -76406.13, -71858.87, -69733.51, -187500.02, -24535.42, 13212.81, 0.000, 0.000, 0.000, 18:30:08.592, 1565821808592
19, -23097.58, -33252.11, -76417.15, -71869.28, -69751.37, -187500.02, -24540.45, 13206.10, 0.000, 0.000, 0.000, 18:30:08.598, 1565821808598
20, -23093.91, -33262.84, -76402.91, -71867.96, -69753.00, -187500.02, -24538.53, 13208.27, 0.000, 0.000, 0.000, 18:30:08.598, 1565821808598
21, -23093.31, -33229.76, -76394.68, -71865.69, -69751.01, -187500.02, -24537.79, 13207.11, 0.000, 0.000, 0.000, 18:30:08.606, 1565821808606
22, -23093.75, -33223.59, -76394.66, -71852.14, -69730.49, -187500.02, -24534.39, 13213.64, 0.000, 0.000, 0.000, 18:30:08.607, 1565821808607
23, -23098.87, -33248.02, -76399.91, -71872.13, -69738.11, -187500.02, -24539.85, 13207.13, 0.000, 0.000, 0.000, 18:30:08.613, 1565821808613
24, -23101.33, -33271.20, -76411.72, -71875.25, -69760.93, -187500.02, -24544.16, 13204.65, 0.000, 0.000, 0.000, 18:30:08.621, 1565821808621
25, -23098.72, -33241.02, -76405.28, -71864.68, -69745.73, -187500.02, -24541.57, 13208.65, 0.000, 0.000, 0.000, 18:30:08.621, 1565821808621
26, -23097.46, -33226.34, -76407.13, -71854.06, -69731.12, -187500.02, -24537.28, 13213.75, 0.000, 0.000, 0.000, 18:30:08.628, 1565821808628
27, -23100.08, -33243.88, -76415.83, -71864.59, -69742.98, -187500.02, -24539.38, 13210.77, -0.054, 0.296, 0.934, 18:30:08.628, 1565821808628
28, -23098.31, -33267.64, -76402.75, -71854.89, -69747.01, -187500.02, -24540.25, 13209.68, 0.000, 0.000, 0.000, 18:30:08.637, 1565821808637
29, -23097.91, -33244.78, -76403.55, -71850.09, -69741.95, -187500.02, -24538.35, 13210.13, 0.000, 0.000, 0.000, 18:30:08.637, 1565821808637
30, -23100.73, -33228.13, -76402.77, -71861.95, -69735.16, -187500.02, -24536.69, 13209.90, 0.000, 0.000, 0.000, 18:30:08.646, 1565821808646
31, -23105.27, -33244.02, -76403.67, -71859.76, -69744.62, -187500.02, -24540.07, 13205.23, 0.000, 0.000, 0.000, 18:30:08.646, 1565821808646
32, -23098.40, -33264.89, -76407.05, -71840.12, -69730.87, -187500.02, -24535.44, 13210.53, 0.000, 0.000, 0.000, 18:30:08.652, 1565821808652
33, -23092.46, -33246.12, -76411.02, -71845.05, -69721.68, -187500.02, -24530.84, 13215.29, 0.000, 0.000, 0.000, 18:30:08.652, 1565821808652
34, -23092.57, -33218.42, -76409.77, -71851.78, -69724.07, -187500.02, -24527.78, 13219.02, 0.000, 0.000, 0.000, 18:30:08.659, 1565821808659
35, -23096.12, -33232.48, -76406.58, -71861.91, -69734.06, -187500.02, -24530.95, 13216.32, 0.000, 0.000, 0.000, 18:30:08.659, 1565821808659
36, -23092.50, -33256.20, -76406.02, -71864.84, -69736.26, -187500.02, -24528.24, 13219.11, 0.000, 0.000, 0.000, 18:30:08.667, 1565821808667
37, -23089.55, -33250.43, -76397.01, -71853.99, -69736.16, -187500.02, -24527.71, 13217.90, -0.048, 0.294, 0.936, 18:30:08.667, 1565821808667
38, -23091.70, -33220.68, -76395.71, -71858.76, -69746.52, -187500.02, -24528.16, 13216.85, 0.000, 0.000, 0.000, 18:30:08.674, 1565821808674
39, -23091.83, -33225.46, -76405.70, -71859.88, -69735.59, -187500.02, -24528.38, 13219.38, 0.000, 0.000, 0.000, 18:30:08.681, 1565821808681
40, -23086.65, -33245.18, -76403.29, -71853.91, -69727.43, -187500.02, -24525.43, 13222.96, 0.000, 0.000, 0.000, 18:30:08.681, 1565821808681
41, -23083.27, -33249.45, -76404.88, -71855.07, -69735.54, -187500.02, -24523.53, 13223.65, 0.000, 0.000, 0.000, 18:30:08.688, 1565821808688
42, -23081.28, -33213.57, -76391.40, -71848.27, -69732.68, -187500.02, -24517.27, 13229.95, 0.000, 0.000, 0.000, 18:30:08.688, 1565821808688
43, -23080.32, -33213.30, -76386.46, -71838.48, -69718.15, -187500.02, -24517.00, 13228.90, 0.000, 0.000, 0.000, 18:30:08.696, 1565821808696
44, -23088.12, -33242.32, -76403.20, -71846.55, -69718.30, -187500.02, -24524.80, 13221.70, 0.000, 0.000, 0.000, 18:30:08.696, 1565821808696
45, -23088.28, -33257.67, -76412.61, -71852.02, -69728.57, -187500.02, -24524.38, 13224.28, 0.000, 0.000, 0.000, 18:30:08.704, 1565821808704
46, -23089.89, -33229.24, -76403.36, -71853.86, -69732.39, -187500.02, -24525.65, 13225.57, 0.000, 0.000, 0.000, 18:30:08.705, 1565821808705
47, -23090.94, -33221.93, -76392.36, -71859.91, -69733.77, -187500.02, -24527.84, 13222.64, -0.048, 0.296, 0.940, 18:30:08.711, 1565821808711
48, -23090.47, -33237.85, -76401.99, -71861.37, -69741.09, -187500.02, -24526.86, 13224.28, 0.000, 0.000, 0.000, 18:30:08.711, 1565821808711
49, -23089.28, -33256.51, -76403.60, -71854.87, -69733.41, -187500.02, -24523.75, 13228.16, 0.000, 0.000, 0.000, 18:30:08.719, 1565821808719
50, -23087.65, -33226.45, -76392.70, -71849.93, -69725.57, -187500.02, -24521.65, 13229.62, 0.000, 0.000, 0.000, 18:30:08.720, 1565821808720
51, -23095.65, -33220.08, -76390.59, -71859.73, -69739.09, -187500.02, -24527.82, 13223.47, 0.000, 0.000, 0.000, 18:30:08.727, 1565821808727
52, -23088.35, -33229.98, -76390.03, -71847.24, -69718.27, -187500.02, -24521.90, 13230.38, 0.000, 0.000, 0.000, 18:30:08.727, 1565821808727
53, -23085.37, -33251.13, -76399.09, -71848.95, -69723.07, -187500.02, -24518.05, 13235.32, 0.000, 0.000, 0.000, 18:30:08.733, 1565821808733
54, -23087.76, -33231.95, -76404.27, -71857.88, -69733.84, -187500.02, -24516.91, 13236.79, 0.000, 0.000, 0.000, 18:30:08.733, 1565821808733
55, -23090.56, -33214.02, -76397.63, -71856.56, -69729.05, -187500.02, -24517.74, 13233.48, 0.000, 0.000, 0.000, 18:30:08.741, 1565821808741
56, -23091.36, -33229.22, -76388.25, -71834.91, -69721.28, -187500.02, -24518.95, 13231.29, 0.000, 0.000, 0.000, 18:30:08.749, 1565821808749
57, -23088.59, -33251.39, -76389.52, -71830.88, -69705.37, -187500.02, -24515.04, 13235.90, -0.046, 0.290, 0.934, 18:30:08.749, 1565821808749
58, -23089.51, -33242.45, -76397.84, -71848.32, -69715.24, -187500.02, -24517.31, 13232.54, 0.000, 0.000, 0.000, 18:30:08.757, 1565821808757
59, -23089.06, -33214.85, -76396.96, -71843.84, -69715.83, -187500.02, -24516.71, 13231.56, 0.000, 0.000, 0.000, 18:30:08.757, 1565821808757
60, -23087.76, -33222.69, -76390.34, -71849.61, -69728.34, -187500.02, -24518.92, 13230.31, 0.000, 0.000, 0.000, 18:30:08.763, 1565821808763
61, -23088.93, -33250.72, -76398.82, -71861.75, -69741.44, -187500.02, -24523.35, 13225.17, 0.000, 0.000, 0.000, 18:30:08.763, 1565821808763
62, -23089.60, -33250.61, -76401.88, -71868.32, -69755.66, -187500.02, -24524.82, 13223.49, 0.000, 0.000, 0.000, 18:30:08.771, 1565821808771
63, -23090.33, -33217.98, -76403.94, -71852.56, -69732.03, -187500.02, -24522.25, 13227.31, 0.000, 0.000, 0.000, 18:30:08.771, 1565821808771
64, -23086.49, -33217.48, -76403.45, -71854.62, -69718.24, -187500.02, -24516.62, 13233.33, 0.000, 0.000, 0.000, 18:30:08.779, 1565821808779
65, -23084.08, -33239.41, -76395.71, -71857.70, -69737.24, -187500.02, -24515.64, 13233.66, 0.000, 0.000, 0.000, 18:30:08.780, 1565821808780
66, -23079.27, -33243.26, -76399.09, -71846.80, -69732.12, -187500.02, -24512.42, 13237.10, 0.000, 0.000, 0.000, 18:30:08.786, 1565821808786
67, -23077.42, -33209.66, -76401.26, -71834.19, -69707.51, -187500.02, -24509.34, 13239.56, -0.042, 0.292, 0.934, 18:30:08.787, 1565821808787
68, -23073.79, -33202.31, -76388.83, -71832.11, -69700.94, -187500.02, -24505.09, 13241.80, 0.000, 0.000, 0.000, 18:30:08.794, 1565821808794
69, -23073.86, -33221.89, -76393.43, -71837.30, -69702.03, -187500.02, -24502.38, 13245.78, 0.000, 0.000, 0.000, 18:30:08.794, 1565821808794
70, -23075.07, -33240.04, -76411.94, -71851.85, -69722.24, -187500.02, -24504.71, 13244.73, 0.000, 0.000, 0.000, 18:30:08.801, 1565821808801
71, -23073.44, -33207.72, -76399.20, -71847.87, -69728.03, -187500.02, -24500.64, 13249.42, 0.000, 0.000, 0.000, 18:30:08.809, 1565821808809
72, -23072.34, -33197.55, -76373.43, -71837.74, -69708.65, -187500.02, -24499.61, 13248.42, 0.000, 0.000, 0.000, 18:30:08.809, 1565821808809
73, -23079.29, -33224.23, -76388.70, -71844.49, -69711.83, -187500.02, -24511.79, 13235.41, 0.000, 0.000, 0.000, 18:30:08.816, 1565821808816
74, -23079.25, -33247.08, -76396.00, -71854.35, -69717.77, -187500.02, -24515.91, 13233.71, 0.000, 0.000, 0.000, 18:30:08.816, 1565821808816
75, -23078.67, -33220.12, -76387.15, -71851.83, -69710.48, -187500.02, -24515.37, 13234.62, 0.000, 0.000, 0.000, 18:30:08.824, 1565821808824
76, -23079.43, -33205.88, -76394.95, -71843.66, -69708.09, -187500.02, -24515.91, 13231.20, 0.000, 0.000, 0.000, 18:30:08.824, 1565821808824
77, -23078.96, -33218.18, -76400.30, -71843.94, -69709.05, -187500.02, -24512.67, 13233.64, -0.042, 0.290, 0.946, 18:30:08.832, 1565821808832
78, -23070.13, -33235.41, -76377.27, -71838.37, -69706.86, -187500.02, -24505.31, 13241.69, 0.000, 0.000, 0.000, 18:30:08.832, 1565821808832
79, -23069.32, -33215.96, -76381.23, -71841.61, -69715.31, -187500.02, -24503.48, 13241.71, 0.000, 0.000, 0.000, 18:30:08.840, 1565821808840
80, -23069.70, -33195.47, -76384.20, -71841.79, -69711.47, -187500.02, -24504.33, 13240.55, 0.000, 0.000, 0.000, 18:30:08.840, 1565821808840
81, -23073.50, -33211.88, -76388.98, -71847.91, -69718.35, -187500.02, -24508.82, 13237.06, 0.000, 0.000, 0.000, 18:30:08.846, 1565821808846
82, -23074.15, -33240.44, -76392.76, -71857.77, -69728.48, -187500.02, -24511.46, 13234.87, 0.000, 0.000, 0.000, 18:30:08.846, 1565821808846
83, -23070.11, -33226.70, -76394.84, -71854.66, -69730.53, -187500.02, -24508.06, 13237.33, 0.000, 0.000, 0.000, 18:30:08.854, 1565821808854
84, -23072.70, -33201.55, -76387.22, -71863.41, -69739.52, -187500.02, -24511.79, 13231.43, 0.000, 0.000, 0.000, 18:30:08.854, 1565821808854
85, -23069.86, -33204.75, -76387.02, -71853.23, -69731.49, -187500.02, -24509.04, 13233.30, 0.000, 0.000, 0.000, 18:30:08.861, 1565821808861
86, -23070.26, -33230.58, -76391.29, -71851.18, -69709.73, -187500.02, -24507.64, 13237.35, -0.042, 0.290, 0.940, 18:30:08.869, 1565821808869
87, -23071.92, -33232.55, -76394.93, -71841.23, -69710.73, -187500.02, -24508.87, 13236.43, 0.000, 0.000, 0.000, 18:30:08.869, 1565821808869
88, -23073.75, -33202.18, -76395.48, -71850.44, -69728.61, -187500.02, -24505.47, 13242.13, 0.000, 0.000, 0.000, 18:30:08.876, 1565821808876
89, -23077.04, -33208.30, -76402.69, -71848.88, -69719.11, -187500.02, -24509.71, 13237.46, 0.000, 0.000, 0.000, 18:30:08.876, 1565821808876
90, -23075.31, -33229.04, -76402.04, -71835.62, -69707.87, -187500.02, -24509.76, 13237.19, 0.000, 0.000, 0.000, 18:30:08.884, 1565821808884
91, -23073.44, -33237.40, -76392.38, -71848.09, -69724.30, -187500.02, -24510.56, 13237.44, 0.000, 0.000, 0.000, 18:30:08.884, 1565821808884
92, -23065.41, -33199.25, -76384.47, -71844.45, -69729.17, -187500.02, -24505.98, 13242.60, 0.000, 0.000, 0.000, 18:30:08.892, 1565821808892
93, -23069.26, -33198.44, -76388.73, -71851.70, -69730.38, -187500.02, -24508.20, 13239.52, 0.000, 0.000, 0.000, 18:30:08.892, 1565821808892
94, -23077.48, -33227.14, -76395.13, -71854.42, -69726.48, -187500.02, -24514.43, 13234.00, 0.000, 0.000, 0.000, 18:30:08.899, 1565821808899
95, -23074.96, -33245.02, -76394.15, -71853.59, -69724.84, -187500.02, -24515.91, 13232.37, 0.000, 0.000, 0.000, 18:30:08.899, 1565821808899
96, -23076.43, -33216.77, -76403.11, -71857.55, -69722.51, -187500.02, -24514.74, 13232.10, -0.042, 0.292, 0.936, 18:30:08.906, 1565821808906
97, -23078.31, -33209.26, -76397.61, -71858.22, -69737.51, -187500.02, -24515.53, 13230.67, 0.000, 0.000, 0.000, 18:30:08.906, 1565821808906
98, -23079.94, -33229.42, -76391.45, -71866.02, -69754.43, -187500.02, -24519.33, 13225.62, 0.000, 0.000, 0.000, 18:30:08.915, 1565821808915
99, -23080.03, -33252.84, -76397.52, -71857.64, -69734.38, -187500.02, -24519.21, 13226.38, 0.000, 0.000, 0.000, 18:30:08.915, 1565821808915
100, -23082.00, -33231.79, -76408.20, -71851.80, -69726.69, -187500.02, -24518.95, 13225.86, 0.000, 0.000, 0.000, 18:30:08.921, 1565821808921
101, -23083.58, -33215.83, -76399.06, -71855.09, -69732.39, -187500.02, -24518.77, 13227.36, 0.000, 0.000, 0.000, 18:30:08.929, 1565821808929
102, -23085.42, -33230.70, -76393.41, -71854.42, -69733.88, -187500.02, -24521.07, 13225.24, 0.000, 0.000, 0.000, 18:30:08.929, 1565821808929
103, -23081.42, -33251.26, -76397.84, -71860.66, -69734.47, -187500.02, -24517.22, 13229.46, 0.000, 0.000, 0.000, 18:30:08.936, 1565821808936
104, -23077.86, -33229.60, -76400.67, -71869.53, -69743.23, -187500.02, -24513.65, 13232.03, 0.000, 0.000, 0.000, 18:30:08.936, 1565821808936
105, -23083.21, -33210.02, -76406.15, -71855.36, -69725.55, -187500.02, -24518.01, 13227.83, 0.000, 0.000, 0.000, 18:30:08.944, 1565821808944
106, -23086.38, -33224.97, -76396.72, -71847.76, -69714.82, -187500.02, -24521.79, 13223.65, -0.042, 0.294, 0.932, 18:30:08.944, 1565821808944
107, -23086.42, -33250.95, -76385.20, -71856.90, -69736.01, -187500.02, -24520.49, 13225.04, 0.000, 0.000, 0.000, 18:30:08.951, 1565821808951
108, -23083.54, -33241.38, -76387.20, -71854.09, -69734.63, -187500.02, -24517.16, 13230.27, 0.000, 0.000, 0.000, 18:30:08.951, 1565821808951
109, -23078.98, -33210.36, -76390.02, -71836.65, -69708.63, -187500.02, -24511.57, 13237.78, 0.000, 0.000, 0.000, 18:30:08.959, 1565821808959
110, -23080.75, -33218.31, -76397.27, -71851.71, -69715.58, -187500.02, -24512.98, 13235.88, 0.000, 0.000, 0.000, 18:30:08.959, 1565821808959
111, -23079.58, -33242.50, -76398.08, -71850.17, -69711.84, -187500.02, -24512.98, 13235.21, 0.000, 0.000, 0.000, 18:30:08.967, 1565821808967
112, -23076.92, -33240.91, -76402.59, -71842.62, -69708.18, -187500.02, -24508.49, 13240.19, 0.000, 0.000, 0.000, 18:30:08.967, 1565821808967
113, -23078.98, -33208.61, -76397.57, -71845.68, -69708.56, -187500.02, -24508.35, 13239.21, 0.000, 0.000, 0.000, 18:30:08.975, 1565821808975
114, -23079.96, -33212.70, -76379.75, -71833.03, -69701.95, -187500.02, -24510.59, 13236.32, 0.000, 0.000, 0.000, 18:30:08.975, 1565821808975
115, -23076.97, -33232.77, -76384.58, -71839.73, -69707.22, -187500.02, -24509.67, 13237.28, 0.000, 0.000, 0.000, 18:30:08.981, 1565821808981
116, -23074.17, -33240.55, -76389.95, -71854.84, -69717.86, -187500.02, -24508.96, 13239.56, -0.040, 0.298, 0.936, 18:30:08.981, 1565821808981
117, -23075.13, -33209.44, -76387.64, -71855.31, -69718.13, -187500.02, -24510.18, 13238.13, 0.000, 0.000, 0.000, 18:30:08.988, 1565821808988
118, -23076.39, -33208.07, -76386.55, -71840.52, -69714.95, -187500.02, -24507.39, 13242.42, 0.000, 0.000, 0.000, 18:30:08.996, 1565821808996
119, -23076.66, -33227.61, -76393.14, -71835.02, -69709.73, -187500.02, -24505.69, 13243.79, 0.000, 0.000, 0.000, 18:30:08.996, 1565821808996
120, -23074.04, -33243.50, -76398.64, -71840.54, -69707.04, -187500.02, -24504.46, 13244.21, 0.000, 0.000, 0.000, 18:30:09.004, 1565821809004
121, -23073.53, -33211.61, -76393.41, -71856.20, -69718.13, -187500.02, -24503.90, 13243.65, 0.000, 0.000, 0.000, 18:30:09.005, 1565821809005
122, -23075.20, -33202.13, -76379.55, -71836.49, -69715.42, -187500.02, -24507.10, 13239.29, 0.000, 0.000, 0.000, 18:30:09.011, 1565821809011
123, -23077.77, -33220.86, -76388.11, -71837.41, -69706.73, -187500.02, -24510.18, 13237.17, 0.000, 0.000, 0.000, 18:30:09.011, 1565821809011
124, -23077.77, -33244.98, -76392.25, -71833.84, -69698.03, -187500.02, -24510.23, 13236.34, 0.000, 0.000, 0.000, 18:30:09.019, 1565821809019
125, -23073.17, -33220.19, -76386.23, -71836.42, -69702.26, -187500.02, -24506.77, 13238.67, 0.000, 0.000, 0.000, 18:30:09.019, 1565821809019
126, -23070.67, -33198.69, -76382.59, -71837.34, -69706.91, -187500.02, -24502.00, 13242.65, -0.044, 0.292, 0.936, 18:30:09.027, 1565821809027
127, -23068.36, -33209.02, -76383.71, -71843.02, -69717.99, -187500.02, -24501.62, 13242.49, 0.000, 0.000, 0.000, 18:30:09.027, 1565821809027
128, -23068.99, -33235.93, -76389.90, -71853.14, -69728.08, -187500.02, -24503.97, 13241.20, 0.000, 0.000, 0.000, 18:30:09.034, 1565821809034
129, -23068.18, -33220.59, -76390.15, -71849.37, -69723.52, -187500.02, -24504.02, 13237.95, 0.000, 0.000, 0.000, 18:30:09.034, 1565821809034
130, -23072.19, -33197.97, -76387.13, -71848.70, -69716.16, -187500.02, -24504.93, 13238.25, 0.000, 0.000, 0.000, 18:30:09.042, 1565821809042
131, -23073.17, -33210.09, -76382.48, -71842.21, -69707.31, -187500.02, -24506.25, 13239.85, 0.000, 0.000, 0.000, 18:30:09.042, 1565821809042
132, -23072.10, -33238.65, -76386.01, -71829.50, -69699.76, -187500.02, -24507.44, 13239.63, 0.000, 0.000, 0.000, 18:30:09.048, 1565821809048
133, -23070.96, -33233.54, -76391.89, -71832.24, -69701.45, -187500.02, -24506.16, 13238.65, 0.000, 0.000, 0.000, 18:30:09.058, 1565821809058
134, -23069.84, -33201.95, -76384.60, -71830.59, -69684.78, -187500.02, -24502.74, 13241.06, 0.000, 0.000, 0.000, 18:30:09.058, 1565821809058
135, -23070.87, -33209.50, -76378.28, -71837.88, -69695.95, -187500.02, -24504.51, 13239.92, 0.000, 0.000, 0.000, 18:30:09.064, 1565821809064
136, -23067.71, -33231.84, -76375.95, -71834.50, -69707.13, -187500.02, -24502.18, 13243.88, -0.038, 0.296, 0.938, 18:30:09.064, 1565821809064
137, -23066.60, -33234.41, -76382.63, -71824.73, -69694.55, -187500.02, -24499.93, 13247.61, 0.000, 0.000, 0.000, 18:30:09.072, 1565821809072
138, -23065.37, -33197.08, -76379.17, -71819.20, -69681.63, -187500.02, -24494.29, 13253.27, 0.000, 0.000, 0.000, 18:30:09.072, 1565821809072
139, -23069.84, -33201.21, -76371.33, -71832.09, -69701.27, -187500.02, -24499.79, 13246.87, 0.000, 0.000, 0.000, 18:30:09.079, 1565821809079
140, -23074.46, -33229.44, -76381.18, -71835.58, -69711.20, -187500.02, -24505.29, 13241.93, 0.000, 0.000, 0.000, 18:30:09.079, 1565821809079
141, -23073.57, -33242.65, -76386.48, -71832.11, -69693.56, -187500.02, -24504.82, 13241.64, 0.000, 0.000, 0.000, 18:30:09.087, 1565821809087
142, -23072.01, -33209.66, -76385.43, -71835.09, -69688.69, -187500.02, -24503.01, 13242.60, 0.000, 0.000, 0.000, 18:30:09.087, 1565821809087
143, -23074.96, -33207.02, -76379.53, -71831.35, -69692.47, -187500.02, -24506.45, 13238.13, 0.000, 0.000, 0.000, 18:30:09.094, 1565821809094
144, -23078.35, -33230.05, -76376.40, -71827.30, -69690.63, -187500.02, -24510.30, 13232.54, 0.000, 0.000, 0.000, 18:30:09.094, 1565821809094
145, -23072.12, -33243.01, -76385.32, -71833.23, -69700.23, -187500.02, -24503.84, 13239.70, -0.038, 0.290, 0.938, 18:30:09.102, 1565821809102
146, -23070.89, -33211.94, -76380.98, -71827.69, -69698.30, -187500.02, -24498.90, 13244.66, 0.000, 0.000, 0.000, 18:30:09.102, 1565821809102
147, -23073.39, -33201.32, -76373.43, -71831.28, -69692.55, -187500.02, -24500.91, 13240.01, 0.000, 0.000, 0.000, 18:30:09.109, 1565821809109
148, -23075.29, -33219.56, -76370.34, -71838.99, -69708.43, -187500.02, -24505.83, 13233.73, 0.000, 0.000, 0.000, 18:30:09.116, 1565821809116
149, -23075.20, -33244.84, -76372.48, -71831.35, -69703.00, -187500.02, -24506.47, 13234.45, 0.000, 0.000, 0.000, 18:30:09.116, 1565821809116
150, -23073.73, -33221.44, -76372.42, -71835.48, -69690.57, -187500.02, -24504.22, 13238.07, 0.000, 0.000, 0.000, 18:30:09.123, 1565821809123
151, -23072.63, -33201.66, -76377.41, -71818.43, -69685.83, -187500.02, -24503.14, 13239.74, 0.000, 0.000, 0.000, 18:30:09.124, 1565821809124
152, -23078.00, -33218.78, -76383.24, -71830.86, -69699.60, -187500.02, -24509.45, 13232.92, 0.000, 0.000, 0.000, 18:30:09.131, 1565821809131
153, -23080.43, -33244.96, -76383.87, -71832.70, -69703.73, -187500.02, -24510.83, 13230.65, 0.000, 0.000, 0.000, 18:30:09.131, 1565821809131
154, -23076.92, -33228.06, -76388.25, -71814.63, -69677.54, -187500.02, -24503.28, 13236.34, 0.000, 0.000, 0.000, 18:30:09.140, 1565821809140
155, -23074.17, -33200.86, -76375.51, -71818.19, -69685.16, -187500.02, -24502.32, 13235.88, -0.044, 0.292, 0.938, 18:30:09.140, 1565821809140
156, -23076.23, -33212.95, -76368.87, -71829.92, -69703.17, -187500.02, -24506.90, 13232.66, 0.000, 0.000, 0.000, 18:30:09.146, 1565821809146
157, -23073.35, -33235.34, -76372.55, -71819.86, -69691.22, -187500.02, -24504.98, 13235.27, 0.000, 0.000, 0.000, 18:30:09.146, 1565821809146
158, -23069.19, -33229.76, -76370.03, -71818.50, -69684.71, -187500.02, -24502.23, 13238.80, 0.000, 0.000, 0.000, 18:30:09.154, 1565821809154
159, -23069.95, -33197.64, -76365.49, -71818.81, -69687.46, -187500.02, -24501.76, 13237.42, 0.000, 0.000, 0.000, 18:30:09.154, 1565821809154
160, -23068.03, -33199.54, -76366.56, -71816.64, -69682.66, -187500.02, -24498.92, 13240.59, 0.000, 0.000, 0.000, 18:30:09.162, 1565821809162
161, -23064.47, -33220.79, -76365.27, -71821.20, -69688.63, -187500.02, -24497.94, 13242.58, 0.000, 0.000, 0.000, 18:30:09.162, 1565821809162
162, -23062.69, -33226.47, -76373.05, -71833.07, -69701.97, -187500.02, -24499.30, 13241.35, 0.000, 0.000, 0.000, 18:30:09.169, 1565821809169
163, -23061.10, -33192.81, -76372.82, -71829.12, -69694.59, -187500.02, -24494.43, 13246.51, 0.000, 0.000, 0.000, 18:30:09.176, 1565821809176
164, -23064.52, -33194.38, -76368.91, -71821.07, -69695.40, -187500.02, -24496.73, 13243.86, 0.000, 0.000, 0.000, 18:30:09.176, 1565821809176
165, -23066.73, -33217.53, -76375.66, -71824.53, -69694.91, -187500.02, -24497.06, 13243.12, -0.046, 0.284, 0.938, 18:30:09.184, 1565821809184
166, -23069.37, -33234.05, -76388.18, -71834.84, -69695.66, -187500.02, -24496.62, 13244.03, 0.000, 0.000, 0.000, 18:30:09.185, 1565821809185
167, -23071.96, -33205.44, -76380.87, -71835.46, -69702.70, -187500.02, -24497.87, 13242.38, 0.000, 0.000, 0.000, 18:30:09.192, 1565821809192
168, -23070.11, -33197.52, -76375.06, -71820.73, -69685.05, -187500.02, -24496.86, 13241.53, 0.000, 0.000, 0.000, 18:30:09.192, 1565821809192
169, -23064.12, -33211.05, -76368.73, -71810.95, -69674.85, -187500.02, -24492.01, 13247.23, 0.000, 0.000, 0.000, 18:30:09.199, 1565821809199
170, -23061.28, -33231.28, -76370.55, -71828.49, -69687.91, -187500.02, -24491.54, 13247.52, 0.000, 0.000, 0.000, 18:30:09.199, 1565821809199
171, -23067.56, -33211.25, -76373.56, -71843.82, -69711.00, -187500.02, -24494.72, 13243.61, 0.000, 0.000, 0.000, 18:30:09.206, 1565821809206
172, -23069.26, -33198.08, -76382.32, -71843.63, -69719.98, -187500.02, -24497.71, 13243.94, 0.000, 0.000, 0.000, 18:30:09.206, 1565821809206
173, -23074.71, -33215.47, -76393.99, -71830.73, -69698.91, -187500.02, -24500.10, 13242.04, 0.000, 0.000, 0.000, 18:30:09.216, 1565821809216
174, -23061.81, -33230.00, -76374.21, -71812.60, -69673.70, -187500.02, -24491.74, 13250.56, 0.000, 0.000, 0.000, 18:30:09.216, 1565821809216
175, -23054.53, -33204.86, -76370.79, -71818.05, -69686.73, -187500.02, -24488.39, 13251.41, -0.048, 0.290, 0.934, 18:30:09.222, 1565821809222
176, -23059.53, -33188.00, -76366.79, -71820.00, -69683.66, -187500.02, -24487.95, 13252.10, 0.000, 0.000, 0.000, 18:30:09.223, 1565821809223
177, -23061.03, -33200.65, -76365.58, -71818.81, -69680.20, -187500.02, -24488.44, 13251.03, 0.000, 0.000, 0.000, 18:30:09.228, 1565821809228
178, -23061.90, -33226.92, -76374.92, -71841.27, -69705.99, -187500.02, -24489.76, 13250.38, 0.000, 0.000, 0.000, 18:30:09.229, 1565821809229
179, -23060.03, -33214.16, -76380.69, -71839.11, -69718.20, -187500.02, -24487.92, 13250.90, 0.000, 0.000, 0.000, 18:30:09.237, 1565821809237
180, -23061.48, -33187.94, -76378.70, -71820.66, -69693.12, -187500.02, -24489.64, 13248.35, 0.000, 0.000, 0.000, 18:30:09.244, 1565821809244
181, -23057.59, -33193.25, -76367.37, -71818.05, -69687.84, -187500.02, -24487.16, 13251.25, 0.000, 0.000, 0.000, 18:30:09.244, 1565821809244
182, -23058.48, -33218.58, -76368.06, -71830.44, -69697.16, -187500.02, -24489.20, 13249.00, 0.000, 0.000, 0.000, 18:30:09.252, 1565821809252
183, -23058.08, -33215.94, -76375.20, -71829.18, -69699.94, -187500.02, -24486.85, 13251.30, 0.000, 0.000, 0.000, 18:30:09.252, 1565821809252
184, -23056.34, -33183.49, -76370.48, -71810.92, -69685.90, -187500.02, -24482.45, 13253.85, 0.000, 0.000, 0.000, 18:30:09.259, 1565821809259
185, -23059.02, -33189.32, -76373.20, -71823.87, -69694.77, -187500.02, -24483.97, 13250.67, -0.048, 0.290, 0.942, 18:30:09.259, 1565821809259
186, -23059.00, -33213.60, -76371.46, -71829.72, -69703.45, -187500.02, -24482.78, 13254.65, 0.000, 0.000, 0.000, 18:30:09.267, 1565821809267
187, -23055.78, -33219.14, -76379.80, -71824.91, -69704.34, -187500.02, -24478.45, 13259.99, 0.000, 0.000, 0.000, 18:30:09.267, 1565821809267
188, -23056.09, -33186.28, -76369.76, -71815.30, -69698.91, -187500.02, -24474.71, 13265.16, 0.000, 0.000, 0.000, 18:30:09.275, 1565821809275
189, -23056.85, -33183.69, -76364.11, -71806.09, -69672.38, -187500.02, -24475.43, 13264.55, 0.000, 0.000, 0.000, 18:30:09.275, 1565821809275
190, -23053.39, -33202.22, -76362.92, -71809.13, -69662.65, -187500.02, -24475.03, 13264.33, 0.000, 0.000, 0.000, 18:30:09.282, 1565821809282
191, -23052.87, -33218.63, -76368.84, -71805.67, -69675.13, -187500.02, -24477.30, 13261.54, 0.000, 0.000, 0.000, 18:30:09.282, 1565821809282
192, -23047.87, -33183.82, -76359.73, -71809.88, -69679.05, -187500.02, -24476.46, 13260.44, 0.000, 0.000, 0.000, 18:30:09.289, 1565821809289
193, -23049.79, -33177.50, -76358.18, -71822.88, -69688.06, -187500.02, -24480.61, 13254.43, 0.000, 0.000, 0.000, 18:30:09.289, 1565821809289
194, -23049.65, -33195.51, -76358.38, -71808.38, -69686.92, -187500.02, -24480.68, 13256.77, 0.000, 0.000, 0.000, 18:30:09.296, 1565821809296
195, -23049.03, -33218.04, -76369.60, -71809.24, -69677.05, -187500.02, -24476.01, 13264.37, -0.042, 0.290, 0.936, 18:30:09.304, 1565821809304
196, -23052.09, -33194.53, -76374.50, -71812.55, -69674.19, -187500.02, -24476.70, 13263.95, 0.000, 0.000, 0.000, 18:30:09.304, 1565821809304
197, -23057.66, -33184.43, -76380.71, -71829.77, -69692.71, -187500.02, -24485.35, 13252.91, 0.000, 0.000, 0.000, 18:30:09.311, 1565821809311
198, -23056.74, -33198.75, -76377.30, -71846.57, -69708.09, -187500.02, -24487.92, 13249.91, 0.000, 0.000, 0.000, 18:30:09.312, 1565821809312
199, -23053.07, -33221.22, -76372.27, -71825.95, -69687.84, -187500.02, -24485.51, 13253.78, 0.000, 0.000, 0.000, 18:30:09.319, 1565821809319
200, -23046.62, -33196.16, -76372.35, -71818.43, -69674.88, -187500.02, -24475.43, 13264.11, 0.000, 0.000, 0.000, 18:30:09.319, 1565821809319
201, -23052.78, -33177.79, -76359.28, -71816.09, -69682.88, -187500.02, -24475.88, 13262.14, 0.000, 0.000, 0.000, 18:30:09.327, 1565821809327
202, -23053.43, -33190.89, -76358.30, -71810.32, -69677.63, -187500.02, -24478.20, 13259.34, 0.000, 0.000, 0.000, 18:30:09.327, 1565821809327
203, -23050.59, -33216.46, -76370.12, -71813.88, -69674.61, -187500.02, -24478.62, 13259.57, 0.000, 0.000, 0.000, 18:30:09.334, 1565821809334
204, -23048.38, -33205.68, -76369.07, -71815.30, -69674.79, -187500.02, -24477.08, 13262.81, -0.038, 0.288, 0.934, 18:30:09.334, 1565821809334
205, -23050.55, -33177.95, -76362.52, -71817.41, -69679.37, -187500.02, -24477.86, 13260.31, 0.000, 0.000, 0.000, 18:30:09.342, 1565821809342
206, -23054.42, -33188.05, -76368.89, -71810.50, -69682.21, -187500.02, -24480.84, 13257.89, 0.000, 0.000, 0.000, 18:30:09.342, 1565821809342
207, -23054.28, -33215.85, -76371.35, -71806.97, -69677.25, -187500.02, -24481.39, 13258.47, 0.000, 0.000, 0.000, 18:30:09.349, 1565821809349
208, -23051.82, -33216.12, -76365.56, -71819.46, -69682.14, -187500.02, -24479.36, 13258.61, 0.000, 0.000, 0.000, 18:30:09.350, 1565821809350
209, -23049.50, -33183.60, -76370.05, -71826.32, -69692.27, -187500.02, -24475.92, 13260.15, 0.000, 0.000, 0.000, 18:30:09.357, 1565821809357
210, -23052.85, -33189.66, -76368.42, -71836.98, -69694.26, -187500.02, -24478.27, 13258.85, 0.000, 0.000, 0.000, 18:30:09.365, 1565821809365
211, -23051.15, -33209.37, -76361.63, -71806.38, -69675.95, -187500.02, -24474.82, 13263.26, 0.000, 0.000, 0.000, 18:30:09.365, 1565821809365
212, -23051.93, -33218.85, -76371.21, -71807.48, -69673.34, -187500.02, -24474.85, 13263.39, 0.000, 0.000, 0.000, 18:30:09.371, 1565821809371
213, -23052.13, -33185.61, -76369.41, -71823.80, -69683.26, -187500.02, -24474.62, 13263.75, 0.000, 0.000, 0.000, 18:30:09.372, 1565821809372
214, -23053.61, -33183.82, -76361.11, -71815.86, -69686.50, -187500.02, -24479.88, 13256.22, -0.042, 0.286, 0.930, 18:30:09.379, 1565821809379
215, -23054.13, -33205.66, -76362.25, -71804.75, -69673.89, -187500.02, -24482.02, 13253.91, 0.000, 0.000, 0.000, 18:30:09.379, 1565821809379
216, -23052.18, -33220.97, -76366.12, -71808.84, -69674.25, -187500.02, -24481.28, 13254.23, 0.000, 0.000, 0.000, 18:30:09.387, 1565821809387
217, -23057.30, -33195.38, -76362.85, -71821.00, -69689.54, -187500.02, -24483.92, 13249.33, 0.000, 0.000, 0.000, 18:30:09.387, 1565821809387
218, -23063.36, -33191.51, -76365.16, -71827.30, -69693.90, -187500.02, -24486.54, 13249.80, 0.000, 0.000, 0.000, 18:30:09.394, 1565821809394
219, -23063.24, -33211.45, -76373.09, -71810.52, -69682.70, -187500.02, -24485.38, 13253.00, 0.000, 0.000, 0.000, 18:30:09.394, 1565821809394
220, -23061.23, -33233.29, -76368.40, -71817.07, -69690.44, -187500.02, -24484.21, 13251.92, 0.000, 0.000, 0.000, 18:30:09.402, 1565821809402
221, -23052.83, -33201.26, -76357.00, -71818.32, -69692.76, -187500.02, -24475.72, 13259.30, 0.000, 0.000, 0.000, 18:30:09.402, 1565821809402
222, -23060.14, -33188.67, -76366.68, -71815.62, -69681.78, -187500.02, -24482.04, 13251.59, 0.000, 0.000, 0.000, 18:30:09.410, 1565821809410
223, -23061.86, -33205.26, -76377.54, -71819.98, -69671.48, -187500.02, -24485.06, 13246.51, 0.000, 0.000, 0.000, 18:30:09.410, 1565821809410
224, -23062.26, -33230.70, -76379.38, -71827.20, -69692.63, -187500.02, -24486.67, 13245.29, -0.048, 0.280, 0.930, 18:30:09.417, 1565821809417
225, -23057.88, -33210.58, -76370.25, -71827.04, -69689.48, -187500.02, -24481.87, 13250.18, 0.000, 0.000, 0.000, 18:30:09.424, 1565821809424
226, -23057.66, -33186.80, -76362.92, -71811.15, -69671.44, -187500.02, -24479.23, 13253.56, 0.000, 0.000, 0.000, 18:30:09.424, 1565821809424
227, -23060.67, -33199.38, -76367.39, -71809.56, -69676.53, -187500.02, -24483.74, 13250.69, 0.000, 0.000, 0.000, 18:30:09.432, 1565821809432
228, -23063.56, -33227.07, -76367.91, -71824.49, -69688.98, -187500.02, -24485.13, 13250.45, 0.000, 0.000, 0.000, 18:30:09.432, 1565821809432
229, -23057.99, -33216.73, -76370.19, -71819.15, -69678.61, -187500.02, -24479.65, 13257.18, 0.000, 0.000, 0.000, 18:30:09.440, 1565821809440
230, -23059.00, -33186.04, -76370.86, -71810.70, -69671.19, -187500.02, -24477.93, 13257.62, 0.000, 0.000, 0.000, 18:30:09.440, 1565821809440
231, -23058.08, -33192.83, -76368.35, -71809.72, -69666.18, -187500.02, -24476.66, 13258.67, 0.000, 0.000, 0.000, 18:30:09.447, 1565821809447
232, -23055.11, -33214.73, -76366.37, -71811.95, -69664.40, -187500.02, -24473.57, 13262.27, 0.000, 0.000, 0.000, 18:30:09.447, 1565821809447
233, -23059.38, -33220.86, -76368.69, -71820.60, -69685.92, -187500.02, -24477.42, 13256.01, 0.000, 0.000, 0.000, 18:30:09.454, 1565821809454
234, -23058.30, -33184.72, -76363.68, -71806.85, -69667.95, -187500.02, -24471.96, 13262.25, -0.048, 0.284, 0.928, 18:30:09.454, 1565821809454
235, -23060.76, -33187.55, -76360.55, -71815.39, -69666.34, -187500.02, -24473.33, 13259.75, 0.000, 0.000, 0.000, 18:30:09.462, 1565821809462
236, -23057.66, -33210.54, -76363.48, -71828.05, -69690.73, -187500.02, -24474.29, 13257.85, 0.000, 0.000, 0.000, 18:30:09.462, 1565821809462
237, -23053.61, -33219.30, -76377.18, -71818.25, -69684.18, -187500.02, -24474.62, 13258.36, 0.000, 0.000, 0.000, 18:30:09.470, 1565821809470
238, -23053.32, -33187.24, -76375.73, -71817.31, -69677.41, -187500.02, -24474.69, 13257.62, 0.000, 0.000, 0.000, 18:30:09.470, 1565821809470
239, -23052.63, -33180.43, -76361.96, -71824.20, -69683.41, -187500.02, -24473.62, 13258.85, 0.000, 0.000, 0.000, 18:30:09.476, 1565821809476
240, -23050.37, -33197.95, -76357.67, -71822.45, -69688.96, -187500.02, -24473.30, 13256.44, 0.000, 0.000, 0.000, 18:30:09.476, 1565821809476
241, -23049.81, -33216.23, -76369.41, -71821.14, -69693.50, -187500.02, -24470.49, 13259.03, 0.000, 0.000, 0.000, 18:30:09.484, 1565821809484
242, -23052.09, -33189.90, -76359.73, -71824.02, -69687.55, -187500.02, -24470.58, 13259.90, 0.000, 0.000, 0.000, 18:30:09.492, 1565821809492
243, -23056.81, -33180.80, -76360.02, -71816.17, -69687.66, -187500.02, -24474.06, 13257.15, 0.000, 0.000, 0.000, 18:30:09.492, 1565821809492
244, -23055.71, -33194.98, -76361.91, -71807.63, -69678.27, -187500.02, -24470.73, 13260.60, -0.048, 0.288, 0.934, 18:30:09.500, 1565821809500
245, -23047.24, -33210.67, -76362.92, -71803.73, -69666.23, -187500.02, -24464.43, 13268.20, 0.000, 0.000, 0.000, 18:30:09.500, 1565821809500
246, -23047.22, -33188.41, -76362.36, -71817.70, -69679.73, -187500.02, -24464.56, 13266.68, 0.000, 0.000, 0.000, 18:30:09.506, 1565821809506
247, -23048.36, -33170.48, -76361.24, -71814.19, -69680.82, -187500.02, -24466.35, 13263.50, 0.000, 0.000, 0.000, 18:30:09.507, 1565821809507
248, -23051.33, -33186.17, -76366.84, -71809.38, -69679.91, -187500.02, -24467.47, 13264.17, 0.000, 0.000, 0.000, 18:30:09.515, 1565821809515
249, -23051.46, -33211.99, -76369.91, -71816.35, -69674.01, -187500.02, -24466.46, 13265.45, 0.000, 0.000, 0.000, 18:30:09.515, 1565821809515
250, -23045.74, -33191.89, -76357.13, -71803.63, -69658.41, -187500.02, -24460.21, 13272.85, 0.000, 0.000, 0.000, 18:30:09.523, 1565821809523
251, -23052.40, -33173.05, -76356.77, -71807.32, -69666.56, -187500.02, -24464.25, 13268.08, 0.000, 0.000, 0.000, 18:30:09.523, 1565821809523
252, -23053.23, -33184.16, -76360.69, -71816.71, -69691.64, -187500.02, -24467.67, 13261.47, 0.000, 0.000, 0.000, 18:30:09.529, 1565821809529
253, -23049.72, -33206.80, -76366.54, -71810.74, -69677.67, -187500.02, -24465.39, 13262.41, 0.000, 0.000, 0.000, 18:30:09.529, 1565821809529
254, -23048.67, -33201.91, -76370.88, -71805.65, -69654.16, -187500.02, -24462.35, 13266.23, -0.044, 0.288, 0.936, 18:30:09.537, 1565821809537
255, -23048.02, -33169.54, -76358.79, -71812.66, -69660.38, -187500.02, -24457.90, 13273.09, 0.000, 0.000, 0.000, 18:30:09.537, 1565821809537
0, -23048.04, -33174.66, -76360.40, -71802.56, -69663.77, -187500.02, -24458.51, 13272.00, 0.000, 0.000, 0.000, 18:30:09.544, 1565821809544
1, -23044.67, -33197.32, -76371.98, -71807.91, -69672.17, -187500.02, -24457.21, 13273.31, 0.000, 0.000, 0.000, 18:30:09.552, 1565821809552
2, -23043.57, -33200.43, -76374.90, -71811.88, -69671.97, -187500.02, -24453.57, 13277.54, 0.000, 0.000, 0.000, 18:30:09.552, 1565821809552
3, -23043.26, -33166.79, -76362.74, -71806.34, -69670.43, -187500.02, -24450.42, 13280.53, 0.000, 0.000, 0.000, 18:30:09.559, 1565821809559
4, -23049.01, -33174.37, -76361.54, -71818.09, -69683.22, -187500.02, -24459.96, 13268.91, 0.000, 0.000, 0.000, 18:30:09.559, 1565821809559
5, -23051.42, -33200.59, -76365.65, -71825.70, -69698.39, -187500.02, -24463.56, 13267.17, 0.000, 0.000, 0.000, 18:30:09.567, 1565821809567
6, -23045.86, -33210.15, -76369.20, -71817.36, -69679.57, -187500.02, -24459.04, 13270.54, 0.000, 0.000, 0.000, 18:30:09.567, 1565821809567
7, -23046.90, -33179.62, -76363.64, -71802.02, -69657.29, -187500.02, -24459.63, 13267.01, 0.000, 0.000, 0.000, 18:30:09.575, 1565821809575
8, -23055.64, -33181.70, -76361.49, -71809.52, -69667.34, -187500.02, -24469.10, 13258.67, -0.046, 0.290, 0.940, 18:30:09.575, 1565821809575
9, -23056.54, -33201.28, -76362.12, -71818.03, -69676.13, -187500.02, -24472.83, 13257.78, 0.000, 0.000, 0.000, 18:30:09.582, 1565821809582
10, -23052.78, -33217.46, -76372.87, -71818.14, -69680.63, -187500.02, -24470.76, 13260.60, 0.000, 0.000, 0.000, 18:30:09.582, 1565821809582
11, -23049.77, -33186.95, -76375.44, -71814.41, -69681.20, -187500.02, -24466.42, 13264.46, 0.000, 0.000, 0.000, 18:30:09.589, 1565821809589
12, -23052.36, -33176.94, -76369.09, -71814.12, -69687.38, -187500.02, -24467.92, 13262.14, 0.000, 0.000, 0.000, 18:30:09.589, 1565821809589
13, -23050.04, -33188.65, -76357.87, -71802.92, -69673.05, -187500.02, -24464.70, 13264.04, 0.000, 0.000, 0.000, 18:30:09.597, 1565821809597
14, -23043.91, -33206.06, -76366.81, -71806.25, -69666.45, -187500.02, -24459.67, 13270.83, 0.000, 0.000, 0.000, 18:30:09.598, 1565821809598
15, -23043.02, -33184.81, -76369.07, -71803.41, -69660.91, -187500.02, -24460.61, 13269.65, 0.000, 0.000, 0.000, 18:30:09.605, 1565821809605
16, -23045.79, -33166.57, -76357.53, -71820.76, -69671.97, -187500.02, -24462.40, 13265.60, 0.000, 0.000, 0.000, 18:30:09.611, 1565821809611
17, -23048.58, -33182.66, -76360.69, -71830.95, -69704.59, -187500.02, -24463.49, 13264.35, -0.042, 0.286, 0.944, 18:30:09.611, 1565821809611
18, -23044.56, -33208.16, -76362.19, -71822.48, -69710.35, -187500.02, -24459.96, 13268.64, 0.000, 0.000, 0.000, 18:30:09.619, 1565821809619
19, -23046.26, -33196.88, -76367.02, -71813.05, -69692.65, -187500.02, -24461.32, 13266.34, 0.000, 0.000, 0.000, 18:30:09.619, 1565821809619
20, -23052.85, -33175.78, -76381.25, -71814.16, -69669.42, -187500.02, -24465.71, 13263.48, 0.000, 0.000, 0.000, 18:30:09.627, 1565821809627
21, -23054.57, -33186.55, -76367.99, -71813.45, -69675.46, -187500.02, -24467.13, 13263.64, 0.000, 0.000, 0.000, 18:30:09.627, 1565821809627
22, -23051.73, -33208.99, -76368.11, -71821.70, -69683.33, -187500.02, -24463.34, 13267.57, 0.000, 0.000, 0.000, 18:30:09.635, 1565821809635
23, -23047.08, -33203.29, -76362.30, -71816.42, -69682.99, -187500.02, -24460.09, 13271.37, 0.000, 0.000, 0.000, 18:30:09.635, 1565821809635
24, -23049.97, -33174.17, -76358.16, -71796.39, -69666.32, -187500.02, -24460.50, 13270.19, 0.000, 0.000, 0.000, 18:30:09.642, 1565821809642
25, -23052.22, -33180.94, -76361.40, -71797.73, -69659.84, -187500.02, -24463.51, 13267.01, 0.000, 0.000, 0.000, 18:30:09.642, 1565821809642
26, -23050.71, -33203.45, -76362.19, -71811.84, -69672.93, -187500.02, -24464.14, 13266.45, 0.000, 0.000, 0.000, 18:30:09.650, 1565821809650
27, -23045.34, -33204.12, -76355.95, -71800.02, -69672.42, -187500.02, -24456.72, 13273.02, -0.044, 0.288, 0.938, 18:30:09.650, 1565821809650
28, -23050.41, -33175.51, -76359.50, -71804.17, -69673.54, -187500.02, -24459.04, 13268.46, 0.000, 0.000, 0.000, 18:30:09.658, 1565821809658
29, -23058.77, -33181.90, -76366.70, -71810.16, -69677.91, -187500.02, -24468.59, 13258.45, 0.000, 0.000, 0.000, 18:30:09.658, 1565821809658
30, -23064.23, -33207.34, -76372.13, -71815.05, -69677.94, -187500.02, -24472.46, 13256.35, 0.000, 0.000, 0.000, 18:30:09.665, 1565821809665
31, -23055.80, -33215.83, -76369.74, -71809.38, -69674.25, -187500.02, -24466.71, 13262.34, 0.000, 0.000, 0.000, 18:30:09.672, 1565821809672
32, -23048.94, -33181.01, -76361.40, -71821.12, -69684.55, -187500.02, -24462.35, 13265.38, 0.000, 0.000, 0.000, 18:30:09.672, 1565821809672
33, -23048.51, -33171.89, -76350.34, -71806.23, -69671.93, -187500.02, -24457.23, 13271.19, 0.000, 0.000, 0.000, 18:30:09.679, 1565821809679
34, -23052.63, -33193.43, -76356.28, -71809.11, -69684.35, -187500.02, -24461.99, 13268.51, 0.000, 0.000, 0.000, 18:30:09.680, 1565821809680
35, -23049.23, -33214.33, -76353.02, -71811.99, -69687.20, -187500.02, -24462.06, 13269.07, 0.000, 0.000, 0.000, 18:30:09.687, 1565821809687
36, -23050.15, -33187.96, -76360.40, -71805.02, -69664.98, -187500.02, -24460.61, 13269.74, 0.000, 0.000, 0.000, 18:30:09.687, 1565821809687
37, -23057.77, -33180.56, -76372.45, -71812.80, -69666.25, -187500.02, -24464.54, 13265.98, -0.046, 0.290, 0.940, 18:30:09.694, 1565821809694
38, -23055.87, -33195.78, -76353.55, -71805.13, -69666.43, -187500.02, -24463.63, 13265.85, 0.000, 0.000, 0.000, 18:30:09.694, 1565821809694
39, -23048.89, -33215.18, -76354.34, -71797.31, -69667.55, -187500.02, -24456.74, 13273.76, 0.000, 0.000, 0.000, 18:30:09.702, 1565821809702
40, -23051.04, -33197.12, -76359.13, -71808.40, -69673.76, -187500.02, -24456.79, 13274.34, 0.000, 0.000, 0.000, 18:30:09.702, 1565821809702
41, -23053.50, -33176.18, -76351.32, -71804.66, -69667.28, -187500.02, -24458.19, 13273.27, 0.000, 0.000, 0.000, 18:30:09.710, 1565821809710
42, -23053.39, -33186.57, -76342.09, -71796.62, -69659.50, -187500.02, -24460.05, 13269.31, 0.000, 0.000, 0.000, 18:30:09.710, 1565821809710
43, -23050.06, -33213.44, -76346.20, -71796.98, -69667.01, -187500.02, -24457.08, 13272.49, 0.000, 0.000, 0.000, 18:30:09.718, 1565821809718
44, -23048.83, -33203.67, -76353.69, -71810.50, -69665.96, -187500.02, -24453.90, 13275.68, 0.000, 0.000, 0.000, 18:30:09.718, 1565821809718
45, -23049.86, -33176.80, -76355.59, -71810.45, -69662.70, -187500.02, -24455.40, 13273.76, 0.000, 0.000, 0.000, 18:30:09.724, 1565821809724
46, -23048.87, -33182.46, -76352.59, -71800.77, -69657.17, -187500.02, -24456.25, 13271.26, 0.000, 0.000, 0.000, 18:30:09.724, 1565821809724
47, -23051.93, -33210.76, -76355.84, -71803.61, -69662.05, -187500.02, -24461.77, 13264.51, -0.042, 0.292, 0.938, 18:30:09.731, 1565821809731
48, -23049.19, -33206.60, -76351.48, -71796.75, -69661.69, -187500.02, -24455.60, 13276.11, 0.000, 0.000, 0.000, 18:30:09.740, 1565821809740
49, -23049.99, -33175.71, -76359.70, -71803.10, -69665.49, -187500.02, -24455.22, 13276.65, 0.000, 0.000, 0.000, 18:30:09.740, 1565821809740
50, -23053.28, -33183.62, -76363.70, -71801.53, -69658.78, -187500.02, -24458.53, 13273.07, 0.000, 0.000, 0.000, 18:30:09.747, 1565821809747
51, -23054.37, -33209.44, -76356.51, -71805.89, -69663.16, -187500.02, -24462.11, 13269.96, 0.000, 0.000, 0.000, 18:30:09.747, 1565821809747
52, -23052.63, -33216.75, -76358.49, -71807.97, -69659.34, -187500.02, -24462.58, 13267.26, 0.000, 0.000, 0.000, 18:30:09.754, 1565821809754
53, -23051.13, -33182.80, -76355.21, -71802.52, -69655.01, -187500.02, -24460.23, 13269.92, 0.000, 0.000, 0.000, 18:30:09.754, 1565821809754
54, -23054.28, -33182.08, -76353.63, -71796.17, -69650.47, -187500.02, -24460.94, 13272.38, 0.000, 0.000, 0.000, 18:30:09.762, 1565821809762
55, -23052.16, -33202.13, -76353.51, -71799.16, -69656.66, -187500.02, -24461.44, 13270.10, 0.000, 0.000, 0.000, 18:30:09.762, 1565821809762
56, -23046.90, -33215.52, -76356.53, -71809.96, -69665.29, -187500.02, -24457.61, 13274.61, 0.000, 0.000, 0.000, 18:30:09.770, 1565821809770
57, -23046.79, -33185.10, -76355.45, -71811.70, -69664.93, -187500.02, -24457.66, 13272.04, -0.044, 0.288, 0.936, 18:30:09.770, 1565821809770
58, -23052.27, -33182.64, -76353.29, -71806.92, -69675.68, -187500.02, -24462.22, 13267.10, 0.000, 0.000, 0.000, 18:30:09.777, 1565821809777
59, -23054.82, -33203.70, -76352.82, -71813.85, -69682.84, -187500.02, -24462.84, 13268.51, 0.000, 0.000, 0.000, 18:30:09.777, 1565821809777
60, -23054.21, -33224.97, -76365.09, -71806.61, -69674.50, -187500.02, -24463.29, 13268.49, 0.000, 0.000, 0.000, 18:30:09.785, 1565821809785
61, -23054.64, -33201.04, -76365.41, -71804.93, -69668.80, -187500.02, -24463.45, 13266.21, 0.000, 0.000, 0.000, 18:30:09.786, 1565821809786
62, -23057.72, -33187.36, -76353.49, -71810.59, -69672.35, -187500.02, -24464.56, 13265.54, 0.000, 0.000, 0.000, 18:30:09.792, 1565821809792
63, -23056.76, -33198.24, -76357.29, -71811.77, -69672.17, -187500.02, -24461.61, 13268.91, 0.000, 0.000, 0.000, 18:30:09.800, 1565821809800
64, -23051.62, -33218.87, -76360.66, -71800.44, -69663.43, -187500.02, -24456.00, 13274.66, 0.000, 0.000, 0.000, 18:30:09.800, 1565821809800
65, -23054.68, -33204.70, -76364.93, -71815.95, -69676.45, -187500.02, -24458.96, 13269.76, 0.000, 0.000, 0.000, 18:30:09.806, 1565821809806
66, -23060.03, -33186.26, -76367.21, -71817.72, -69679.98, -187500.02, -24462.35, 13265.11, 0.000, 0.000, 0.000, 18:30:09.807, 1565821809807
67, -23057.03, -33194.51, -76359.75, -71812.60, -69676.71, -187500.02, -24461.77, 13264.96, -0.044, 0.290, 0.940, 18:30:09.814, 1565821809814
68, -23052.22, -33215.83, -76354.25, -71802.34, -69656.77, -187500.02, -24457.12, 13269.76, 0.000, 0.000, 0.000, 18:30:09.814, 1565821809814
69, -23052.74, -33207.61, -76359.55, -71812.06, -69660.53, -187500.02, -24456.65, 13270.86, 0.000, 0.000, 0.000, 18:30:09.822, 1565821809822
70, -23052.54, -33180.14, -76362.43, -71816.42, -69678.45, -187500.02, -24454.15, 13275.88, 0.000, 0.000, 0.000, 18:30:09.822, 1565821809822
71, -23057.97, -33189.72, -76366.37, -71815.26, -69690.97, -187500.02, -24456.00, 13273.14, 0.000, 0.000, 0.000, 18:30:09.830, 1565821809830
72, -23059.04, -33212.37, -76365.54, -71806.97, -69671.52, -187500.02, -24456.79, 13270.66, 0.000, 0.000, 0.000, 18:30:09.830, 1565821809830
73, -23055.02, -33212.34, -76369.74, -71827.09, -69690.41, -187500.02, -24457.81, 13269.47, 0.000, 0.000, 0.000, 18:30:09.837, 1565821809837
74, -23056.54, -33181.45, -76363.15, -71818.77, -69675.99, -187500.02, -24458.26, 13269.22, 0.000, 0.000, 0.000, 18:30:09.837, 1565821809837
75, -23056.96, -33184.34, -76360.09, -71785.24, -69640.03, -187500.02, -24459.56, 13269.51, 0.000, 0.000, 0.000, 18:30:09.845, 1565821809845
76, -23054.13, -33207.41, -76364.77, -71794.70, -69658.34, -187500.02, -24459.40, 13269.78, -0.042, 0.288, 0.940, 18:30:09.846, 1565821809846
77, -23055.29, -33219.92, -76365.72, -71800.82, -69661.91, -187500.02, -24460.43, 13269.89, 0.000, 0.000, 0.000, 18:30:09.852, 1565821809852
78, -23057.37, -33190.93, -76369.41, -71805.63, -69658.77, -187500.02, -24462.91, 13267.08, 0.000, 0.000, 0.000, 18:30:09.860, 1565821809860
79, -23061.77, -33191.36, -76369.85, -71813.31, -69668.91, -187500.02, -24467.27, 13260.24, 0.000, 0.000, 0.000, 18:30:09.860, 1565821809860
80, -23058.44, -33206.15, -76362.38, -71821.09, -69679.98, -187500.02, -24463.63, 13263.82, 0.000, 0.000, 0.000, 18:30:09.867, 1565821809867
81, -23050.62, -33217.64, -76365.76, -71821.65, -69676.15, -187500.02, -24454.98, 13274.88, 0.000, 0.000, 0.000, 18:30:09.867, 1565821809867
82, -23051.89, -33188.92, -76368.29, -71822.01, -69678.19, -187500.02, -24453.75, 13276.47, 0.000, 0.000, 0.000, 18:30:09.876, 1565821809876
83, -23053.03, -33180.83, -76353.69, -71799.75, -69665.16, -187500.02, -24454.86, 13275.17, 0.000, 0.000, 0.000, 18:30:09.876, 1565821809876
84, -23055.38, -33200.14, -76357.63, -71799.27, -69663.68, -187500.02, -24459.29, 13270.77, 0.000, 0.000, 0.000, 18:30:09.883, 1565821809883
85, -23052.05, -33219.54, -76361.54, -71802.83, -69666.61, -187500.02, -24456.43, 13272.78, 0.000, 0.000, 0.000, 18:30:09.883, 1565821809883
86, -23054.21, -33196.45, -76361.60, -71805.20, -69662.61, -187500.02, -24453.14, 13275.33, -0.040, 0.290, 0.938, 18:30:09.889, 1565821809889
87, -23059.51, -33184.09, -76363.77, -71813.27, -69663.34, -187500.02, -24455.13, 13272.08, 0.000, 0.000, 0.000, 18:30:09.889, 1565821809889
88, -23057.88, -33198.02, -76369.34, -71810.16, -69669.42, -187500.02, -24453.93, 13273.54, 0.000, 0.000, 0.000, 18:30:09.897, 1565821809897
89, -23055.80, -33221.78, -76368.55, -71817.63, -69679.52, -187500.02, -24451.85, 13278.23, 0.000, 0.000, 0.000, 18:30:09.897, 1565821809897
90, -23055.53, -33204.77, -76370.95, -71809.94, -69672.71, -187500.02, -24451.49, 13277.76, 0.000, 0.000, 0.000, 18:30:09.905, 1565821809905
91, -23056.99, -33182.08, -76371.59, -71807.70, -69668.22, -187500.02, -24451.02, 13280.09, 0.000, 0.000, 0.000, 18:30:09.906, 1565821809906
92, -23055.64, -33192.07, -76369.05, -71813.54, -69666.41, -187500.02, -24452.90, 13277.58, 0.000, 0.000, 0.000, 18:30:09.912, 1565821809912
93, -23052.47, -33213.42, -76369.90, -71802.83, -69661.63, -187500.02, -24448.49, 13284.13, 0.000, 0.000, 0.000, 18:30:09.919, 1565821809919
94, -23053.48, -33207.92, -76367.50, -71811.75, -69672.17, -187500.02, -24449.10, 13283.44, 0.000, 0.000, 0.000, 18:30:09.919, 1565821809919
95, -23052.56, -33177.05, -76363.30, -71815.51, -69674.77, -187500.02, -24449.43, 13281.09, 0.000, 0.000, 0.000, 18:30:09.927, 1565821809927
96, -23056.85, -33185.61, -76373.65, -71814.68, -69675.77, -187500.02, -24452.63, 13275.80, -0.042, 0.294, 0.942, 18:30:09.927, 1565821809927
97, -23061.28, -33213.66, -76370.56, -71813.34, -69669.47, -187500.02, -24453.95, 13275.21, 0.000, 0.000, 0.000, 18:30:09.935, 1565821809935
98, -23059.22, -33214.96, -76366.59, -71818.99, -69671.66, -187500.02, -24452.47, 13277.99, 0.000, 0.000, 0.000, 18:30:09.935, 1565821809935
99, -23059.06, -33184.98, -76365.02, -71813.78, -69676.45, -187500.02, -24453.12, 13278.08, 0.000, 0.000, 0.000, 18:30:09.942, 1565821809942
100, -23055.49, -33185.45, -76367.13, -71801.16, -69667.73, -187500.02, -24455.91, 13272.02, 0.000, 0.000, 0.000, 18:30:09.943, 1565821809943
101, -23051.73, -33204.01, -76364.22, -71801.76, -69662.47, -187500.02, -24456.81, 13269.02, 0.000, 0.000, 0.000, 18:30:09.950, 1565821809950
102, -23052.63, -33217.24, -76373.65, -71816.95, -69681.09, -187500.02, -24454.73, 13275.26, 0.000, 0.000, 0.000, 18:30:09.950, 1565821809950
103, -23053.63, -33183.13, -76372.65, -71822.27, -69689.48, -187500.02, -24453.46, 13277.90, 0.000, 0.000, 0.000, 18:30:09.958, 1565821809958
104, -23052.05, -33175.93, -76372.02, -71807.55, -69666.61, -187500.02, -24450.62, 13280.62, 0.000, 0.000, 0.000, 18:30:09.958, 1565821809958
105, -23050.06, -33194.95, -76362.32, -71805.85, -69664.59, -187500.02, -24451.85, 13277.94, 0.000, 0.000, 0.000, 18:30:09.965, 1565821809965
106, -23048.34, -33211.52, -76369.11, -71815.30, -69670.67, -187500.02, -24448.92, 13278.99, -0.038, 0.292, 0.936, 18:30:09.965, 1565821809965
107, -23050.35, -33185.66, -76369.13, -71819.64, -69669.87, -187500.02, -24448.09, 13277.41, 0.000, 0.000, 0.000, 18:30:09.971, 1565821809971
108, -23053.66, -33178.05, -76369.90, -71823.77, -69686.52, -187500.02, -24452.18, 13273.09, 0.000, 0.000, 0.000, 18:30:09.971, 1565821809971
109, -23052.34, -33193.30, -76371.59, -71827.84, -69688.20, -187500.02, -24450.93, 13277.36, 0.000, 0.000, 0.000, 18:30:09.979, 1565821809979
110, -23047.69, -33213.39, -76372.55, -71805.36, -69666.45, -187500.02, -24446.17, 13284.83, 0.000, 0.000, 0.000, 18:30:09.987, 1565821809987
111, -23047.13, -33191.58, -76370.37, -71807.01, -69670.25, -187500.02, -24444.83, 13285.36, 0.000, 0.000, 0.000, 18:30:09.987, 1565821809987
112, -23056.31, -33181.12, -76366.30, -71817.92, -69682.37, -187500.02, -24451.27, 13278.23, 0.000, 0.000, 0.000, 18:30:09.994, 1565821809994
113, -23067.16, -33204.16, -76380.65, -71814.52, -69674.07, -187500.02, -24462.80, 13263.61, 0.000, 0.000, 0.000, 18:30:09.994, 1565821809994
114, -23064.56, -33227.52, -76382.10, -71809.31, -69670.07, -187500.02, -24461.03, 13268.51, 0.000, 0.000, 0.000, 18:30:10.002, 1565821810002
115, -23062.93, -33209.93, -76359.44, -71811.50, -69673.78, -187500.02, -24460.00, 13269.20, 0.000, 0.000, 0.000, 18:30:10.002, 1565821810002
116, -23064.12, -33185.21, -76363.52, -71820.22, -69679.15, -187500.02, -24461.84, 13267.50, -0.042, 0.294, 0.932, 18:30:10.010, 1565821810010
117, -23068.21, -33200.18, -76373.59, -71816.24, -69672.98, -187500.02, -24468.61, 13262.54, 0.000, 0.000, 0.000, 18:30:10.010, 1565821810010
118, -23072.32, -33233.96, -76384.34, -71826.86, -69676.89, -187500.02, -24475.09, 13257.24, 0.000, 0.000, 0.000, 18:30:10.018, 1565821810018
119, -23066.46, -33224.04, -76373.49, -71830.13, -69674.92, -187500.02, -24467.69, 13262.47, 0.000, 0.000, 0.000, 18:30:10.018, 1565821810018
120, -23059.38, -33186.35, -76356.17, -71821.23, -69679.26, -187500.02, -24458.42, 13268.31, 0.000, 0.000, 0.000, 18:30:10.024, 1565821810024
121, -23062.10, -33193.68, -76358.95, -71812.04, -69683.04, -187500.02, -24459.83, 13268.33, 0.000, 0.000, 0.000, 18:30:10.025, 1565821810025
122, -23064.59, -33218.85, -76364.29, -71811.77, -69673.38, -187500.02, -24461.01, 13268.58, 0.000, 0.000, 0.000, 18:30:10.034, 1565821810034
123, -23061.97, -33222.22, -76365.23, -71809.52, -69669.58, -187500.02, -24457.35, 13273.02, 0.000, 0.000, 0.000, 18:30:10.034, 1565821810034
124, -23060.16, -33189.90, -76361.85, -71806.20, -69669.55, -187500.02, -24453.84, 13276.96, 0.000, 0.000, 0.000, 18:30:10.040, 1565821810040
125, -23060.00, -33188.92, -76361.02, -71799.32, -69664.69, -187500.02, -24452.43, 13277.61, 0.000, 0.000, 0.000, 18:30:10.047, 1565821810047
126, -23061.52, -33214.56, -76364.51, -71802.38, -69658.20, -187500.02, -24455.85, 13274.83, -0.038, 0.296, 0.938, 18:30:10.048, 1565821810048
127, -23061.52, -33230.56, -76371.68, -71811.39, -69665.18, -187500.02, -24456.72, 13275.53, 0.000, 0.000, 0.000, 18:30:10.054, 1565821810054
128, -23059.69, -33195.49, -76365.73, -71804.51, -69663.03, -187500.02, -24453.46, 13278.05, 0.000, 0.000, 0.000, 18:30:10.054, 1565821810054
129, -23062.08, -33190.24, -76371.13, -71813.05, -69663.73, -187500.02, -24457.26, 13273.90, 0.000, 0.000, 0.000, 18:30:10.062, 1565821810062
130, -23062.73, -33210.15, -76367.21, -71810.84, -69665.47, -187500.02, -24460.32, 13268.58, 0.000, 0.000, 0.000, 18:30:10.062, 1565821810062
131, -23058.13, -33226.61, -76364.60, -71803.32, -69654.72, -187500.02, -24451.73, 13278.08, 0.000, 0.000, 0.000, 18:30:10.070, 1565821810070
132, -23053.12, -33194.55, -76360.98, -71802.77, -69651.25, -187500.02, -24442.79, 13288.42, 0.000, 0.000, 0.000, 18:30:10.070, 1565821810070
133, -23060.94, -33187.58, -76362.92, -71810.72, -69659.43, -187500.02, -24446.91, 13284.94, 0.000, 0.000, 0.000, 18:30:10.077, 1565821810077
134, -23062.39, -33206.31, -76369.98, -71816.87, -69667.01, -187500.02, -24449.14, 13281.36, 0.000, 0.000, 0.000, 18:30:10.077, 1565821810077
135, -23061.12, -33230.65, -76365.54, -71820.65, -69673.88, -187500.02, -24450.51, 13280.36, 0.000, 0.000, 0.000, 18:30:10.085, 1565821810085
136, -23060.00, -33207.29, -76362.52, -71816.24, -69673.45, -187500.02, -24446.15, 13284.67, -0.042, 0.292, 0.936, 18:30:10.085, 1565821810085
137, -23059.00, -33186.06, -76361.23, -71805.63, -69660.59, -187500.02, -24445.63, 13285.63, 0.000, 0.000, 0.000, 18:30:10.092, 1565821810092
138, -23060.45, -33201.35, -76367.41, -71805.11, -69657.80, -187500.02, -24449.90, 13281.88, 0.000, 0.000, 0.000, 18:30:10.092, 1565821810092
139, -23062.06, -33227.88, -76366.21, -71813.83, -69669.58, -187500.02, -24454.17, 13277.56, 0.000, 0.000, 0.000, 18:30:10.099, 1565821810099
140, -23059.87, -33211.94, -76362.05, -71807.93, -69665.67, -187500.02, -24448.45, 13283.55, 0.000, 0.000, 0.000, 18:30:10.107, 1565821810107
141, -23059.96, -33187.54, -76363.16, -71809.54, -69662.80, -187500.02, -24447.29, 13285.94, 0.000, 0.000, 0.000, 18:30:10.107, 1565821810107
142, -23063.33, -33200.90, -76365.91, -71798.67, -69647.27, -187500.02, -24449.95, 13284.74, 0.000, 0.000, 0.000, 18:30:10.115, 1565821810115
143, -23063.89, -33229.20, -76365.78, -71802.83, -69651.27, -187500.02, -24451.36, 13284.11, 0.000, 0.000, 0.000, 18:30:10.115, 1565821810115
144, -23065.57, -33228.28, -76382.16, -71821.72, -69661.16, -187500.02, -24454.53, 13277.94, 0.000, 0.000, 0.000, 18:30:10.122, 1565821810122
145, -23065.26, -33195.96, -76369.98, -71810.41, -69660.46, -187500.02, -24453.39, 13277.03, -0.042, 0.290, 0.934, 18:30:10.122, 1565821810122
146, -23062.80, -33197.84, -76359.39, -71815.91, -69674.16, -187500.02, -24453.01, 13276.06, 0.000, 0.000, 0.000, 18:30:10.130, 1565821810130
147, -23063.47, -33225.33, -76372.58, -71822.12, -69691.28, -187500.02, -24457.32, 13271.97, 0.000, 0.000, 0.000, 18:30:10.130, 1565821810130
148, -23060.88, -33231.07, -76374.27, -71817.09, -69673.76, -187500.02, -24457.84, 13269.38, 0.000, 0.000, 0.000, 18:30:10.140, 1565821810140
149, -23061.28, -33199.40, -76375.28, -71821.36, -69666.67, -187500.02, -24454.86, 13272.42, 0.000, 0.000, 0.000, 18:30:10.140, 1565821810140
150, -23066.46, -33201.14, -76375.98, -71837.07, -69678.97, -187500.02, -24457.14, 13271.48, 0.000, 0.000, 0.000, 18:30:10.146, 1565821810146
151, -23068.88, -33223.34, -76382.99, -71824.80, -69685.00, -187500.02, -24461.10, 13267.84, 0.000, 0.000, 0.000, 18:30:10.146, 1565821810146
152, -23065.03, -33235.84, -76382.70, -71808.84, -69665.24, -187500.02, -24460.43, 13268.24, 0.000, 0.000, 0.000, 18:30:10.152, 1565821810152
153, -23062.15, -33203.38, -76375.44, -71815.30, -69668.46, -187500.02, -24455.74, 13270.10, 0.000, 0.000, 0.000, 18:30:10.153, 1565821810153
154, -23063.58, -33197.66, -76373.16, -71823.33, -69676.11, -187500.02, -24457.10, 13268.46, 0.000, 0.000, 0.000, 18:30:10.159, 1565821810159
155, -23061.50, -33212.46, -76369.90, -71808.91, -69656.30, -187500.02, -24454.44, 13274.21, -0.038, 0.290, 0.938, 18:30:10.168, 1565821810168
156, -23061.95, -33236.51, -76378.86, -71807.68, -69655.59, -187500.02, -24454.42, 13274.68, 0.000, 0.000, 0.000, 18:30:10.168, 1565821810168
157, -23072.12, -33220.70, -76381.07, -71821.78, -69673.02, -187500.02, -24461.68, 13267.35, 0.000, 0.000, 0.000, 18:30:10.175, 1565821810175
158, -23074.51, -33209.91, -76378.19, -71822.68, -69673.18, -187500.02, -24466.51, 13263.12, 0.000, 0.000, 0.000, 18:30:10.175, 1565821810175
159, -23075.58, -33226.70, -76379.13, -71816.84, -69674.21, -187500.02, -24468.83, 13261.65, 0.000, 0.000, 0.000, 18:30:10.183, 1565821810183
160, -23073.12, -33247.79, -76376.91, -71821.05, -69670.19, -187500.02, -24466.73, 13263.35, 0.000, 0.000, 0.000, 18:30:10.184, 1565821810184
161, -23074.53, -33229.64, -76377.95, -71813.47, -69664.02, -187500.02, -24467.34, 13260.46, 0.000, 0.000, 0.000, 18:30:10.190, 1565821810190
162, -23075.85, -33209.68, -76381.02, -71813.70, -69668.30, -187500.02, -24467.72, 13259.32, 0.000, 0.000, 0.000, 18:30:10.190, 1565821810190
163, -23077.04, -33222.47, -76374.59, -71815.19, -69676.40, -187500.02, -24468.54, 13261.36, 0.000, 0.000, 0.000, 18:30:10.198, 1565821810198
164, -23074.35, -33247.91, -76372.98, -71814.16, -69674.84, -187500.02, -24469.68, 13261.27, 0.000, 0.000, 0.000, 18:30:10.198, 1565821810198
165, -23073.84, -33238.99, -76385.43, -71821.12, -69669.76, -187500.02, -24469.33, 13261.69, -0.040, 0.298, 0.936, 18:30:10.205, 1565821810205
166, -23076.03, -33214.76, -76381.54, -71826.79, -69673.27, -187500.02, -24470.40, 13261.02, 0.000, 0.000, 0.000, 18:30:10.205, 1565821810205
167, -23077.42, -33224.86, -76373.74, -71830.44, -69670.81, -187500.02, -24470.60, 13261.20, 0.000, 0.000, 0.000, 18:30:10.213, 1565821810213
168, -23072.65, -33244.44, -76374.50, -71820.71, -69671.32, -187500.02, -24464.01, 13268.69, 0.000, 0.000, 0.000, 18:30:10.213, 1565821810213
169, -23069.39, -33239.77, -76377.67, -71819.04, -69672.55, -187500.02, -24460.00, 13272.15, 0.000, 0.000, 0.000, 18:30:10.220, 1565821810220
170, -23072.01, -33213.28, -76382.05, -71826.34, -69680.48, -187500.02, -24462.75, 13268.33, 0.000, 0.000, 0.000, 18:30:10.221, 1565821810221
171, -23072.07, -33214.71, -76384.27, -71833.25, -69682.14, -187500.02, -24462.78, 13268.15, 0.000, 0.000, 0.000, 18:30:10.228, 1565821810228
172, -23068.70, -33236.20, -76376.76, -71801.00, -69655.90, -187500.02, -24460.36, 13270.97, 0.000, 0.000, 0.000, 18:30:10.234, 1565821810234
173, -23065.99, -33242.99, -76374.39, -71811.37, -69661.20, -187500.02, -24458.37, 13273.27, 0.000, 0.000, 0.000, 18:30:10.234, 1565821810234
174, -23072.54, -33216.12, -76378.30, -71822.05, -69674.56, -187500.02, -24462.15, 13267.75, 0.000, 0.000, 0.000, 18:30:10.242, 1565821810242
175, -23076.81, -33216.19, -76374.90, -71815.88, -69664.04, -187500.02, -24466.38, 13261.71, -0.042, 0.290, 0.938, 18:30:10.242, 1565821810242
176, -23078.04, -33235.88, -76381.52, -71814.05, -69659.52, -187500.02, -24468.77, 13257.96, 0.000, 0.000, 0.000, 18:30:10.250, 1565821810250
177, -23072.43, -33247.84, -76378.66, -71806.01, -69645.38, -187500.02, -24461.93, 13268.87, 0.000, 0.000, 0.000, 18:30:10.250, 1565821810250
178, -23075.11, -33217.64, -76373.13, -71813.90, -69656.68, -187500.02, -24461.88, 13269.36, 0.000, 0.000, 0.000, 18:30:10.257, 1565821810257
179, -23078.42, -33212.39, -76373.09, -71823.73, -69666.12, -187500.02, -24464.47, 13265.67, 0.000, 0.000, 0.000, 18:30:10.258, 1565821810258
180, -23079.00, -33232.46, -76371.13, -71848.30, -69689.77, -187500.02, -24467.20, 13262.56, 0.000, 0.000, 0.000, 18:30:10.265, 1565821810265
181, -23084.10, -33257.02, -76381.54, -71841.05, -69698.77, -187500.02, -24472.01, 13257.22, 0.000, 0.000, 0.000, 18:30:10.265, 1565821810265
182, -23078.09, -33225.51, -76387.80, -71820.31, -69671.52, -187500.02, -24464.70, 13265.71, 0.000, 0.000, 0.000, 18:30:10.273, 1565821810273
183, -23075.96, -33208.57, -76387.58, -71822.88, -69664.35, -187500.02, -24465.01, 13264.62, 0.000, 0.000, 0.000, 18:30:10.273, 1565821810273
184, -23078.42, -33226.11, -76388.31, -71813.94, -69655.27, -187500.02, -24465.79, 13263.61, 0.000, 0.000, 0.000, 18:30:10.280, 1565821810280
185, -23075.81, -33249.63, -76378.63, -71818.03, -69655.05, -187500.02, -24462.75, 13268.84, -0.044, 0.292, 0.936, 18:30:10.280, 1565821810280
186, -23077.28, -33232.62, -76376.98, -71819.62, -69660.80, -187500.02, -24463.00, 13268.46, 0.000, 0.000, 0.000, 18:30:10.287, 1565821810287
187, -23077.97, -33207.23, -76374.50, -71817.63, -69665.55, -187500.02, -24461.08, 13268.84, 0.000, 0.000, 0.000, 18:30:10.295, 1565821810295
188, -23076.23, -33218.31, -76376.89, -71827.93, -69677.70, -187500.02, -24462.93, 13265.25, 0.000, 0.000, 0.000, 18:30:10.295, 1565821810295
189, -23074.31, -33243.01, -76380.63, -71818.79, -69669.63, -187500.02, -24463.60, 13263.37, 0.000, 0.000, 0.000, 18:30:10.303, 1565821810303
190, -23072.25, -33232.77, -76378.26, -71805.52, -69661.78, -187500.02, -24462.02, 13268.31, 0.000, 0.000, 0.000, 18:30:10.303, 1565821810303
191, -23075.47, -33208.30, -76375.35, -71814.63, -69656.80, -187500.02, -24465.26, 13265.00, 0.000, 0.000, 0.000, 18:30:10.310, 1565821810310
192, -23081.77, -33221.44, -76376.22, -71823.17, -69672.33, -187500.02, -24471.87, 13257.53, 0.000, 0.000, 0.000, 18:30:10.310, 1565821810310
193, -23087.27, -33249.85, -76380.11, -71820.31, -69671.73, -187500.02, -24473.39, 13257.74, 0.000, 0.000, 0.000, 18:30:10.318, 1565821810318
194, -23085.95, -33250.19, -76379.62, -71821.52, -69664.59, -187500.02, -24470.06, 13261.42, 0.000, 0.000, 0.000, 18:30:10.318, 1565821810318
195, -23082.00, -33216.73, -76384.42, -71819.80, -69665.78, -187500.02, -24467.16, 13263.70, -0.042, 0.294, 0.936, 18:30:10.326, 1565821810326
196, -23088.03, -33225.84, -76392.11, -71828.02, -69674.72, -187500.02, -24473.21, 13257.67, 0.000, 0.000, 0.000, 18:30:10.326, 1565821810326
197, -23084.88, -33245.11, -76374.66, -71819.98, -69673.60, -187500.02, -24470.96, 13262.09, 0.000, 0.000, 0.000, 18:30:10.333, 1565821810333
198, -23080.32, -33248.98, -76376.22, -71817.52, -69667.05, -187500.02, -24466.69, 13266.09, 0.000, 0.000, 0.000, 18:30:10.333, 1565821810333
199, -23078.53, -33212.55, -76377.85, -71823.06, -69662.00, -187500.02, -24463.00, 13267.84, 0.000, 0.000, 0.000, 18:30:10.341, 1565821810341
200, -23077.55, -33209.10, -76378.19, -71822.39, -69661.60, -187500.02, -24464.79, 13265.31, 0.000, 0.000, 0.000, 18:30:10.341, 1565821810341
201, -23077.53, -33233.24, -76384.83, -71821.61, -69667.37, -187500.02, -24466.31, 13264.26, 0.000, 0.000, 0.000, 18:30:10.347, 1565821810347
202, -23078.80, -33251.80, -76385.50, -71828.42, -69669.98, -187500.02, -24467.40, 13264.35, 0.000, 0.000, 0.000, 18:30:10.355, 1565821810355
203, -23078.44, -33220.30, -76377.54, -71827.87, -69668.82, -187500.02, -24465.30, 13264.84, 0.000, 0.000, 0.000, 18:30:10.355, 1565821810355
204, -23082.89, -33213.42, -76383.55, -71829.32, -69675.66, -187500.02, -24468.05, 13262.38, -0.040, 0.294, 0.932, 18:30:10.363, 1565821810363
205, -23088.66, -33236.95, -76390.68, -71840.43, -69683.33, -187500.02, -24475.85, 13255.10, 0.000, 0.000, 0.000, 18:30:10.363, 1565821810363
206, -23091.61, -33265.30, -76386.39, -71844.59, -69684.18, -187500.02, -24478.65, 13253.56, 0.000, 0.000, 0.000, 18:30:10.370, 1565821810370
207, -23089.71, -33241.82, -76390.48, -71839.53, -69688.91, -187500.02, -24480.30, 13250.85, 0.000, 0.000, 0.000, 18:30:10.370, 1565821810370
208, -23088.44, -33225.29, -76396.90, -71847.35, -69698.81, -187500.02, -24480.17, 13251.63, 0.000, 0.000, 0.000, 18:30:10.377, 1565821810377
209, -23089.55, -33239.21, -76394.10, -71840.43, -69697.14, -187500.02, -24479.70, 13250.76, 0.000, 0.000, 0.000, 18:30:10.378, 1565821810378
210, -23088.81, -33263.84, -76391.73, -71837.63, -69682.03, -187500.02, -24478.22, 13254.43, 0.000, 0.000, 0.000, 18:30:10.386, 1565821810386
211, -23083.14, -33241.60, -76374.30, -71828.78, -69666.48, -187500.02, -24471.83, 13261.74, 0.000, 0.000, 0.000, 18:30:10.386, 1565821810386
212, -23086.65, -33222.52, -76365.73, -71814.95, -69653.20, -187500.02, -24475.61, 13258.79, 0.000, 0.000, 0.000, 18:30:10.393, 1565821810393
213, -23090.92, -33235.75, -76378.68, -71800.64, -69636.68, -187500.02, -24478.67, 13254.67, 0.000, 0.000, 0.000, 18:30:10.393, 1565821810393
214, -23092.32, -33264.76, -76380.13, -71818.09, -69654.91, -187500.02, -24479.90, 13253.56, -0.042, 0.294, 0.934, 18:30:10.400, 1565821810400
215, -23092.46, -33255.08, -76379.82, -71818.16, -69663.32, -187500.02, -24476.66, 13257.78, 0.000, 0.000, 0.000, 18:30:10.400, 1565821810400
216, -23091.70, -33224.55, -76381.74, -71818.63, -69659.41, -187500.02, -24476.32, 13258.52, 0.000, 0.000, 0.000, 18:30:10.407, 1565821810407
217, -23092.68, -33235.10, -76382.41, -71826.63, -69668.15, -187500.02, -24481.44, 13251.63, 0.000, 0.000, 0.000, 18:30:10.415, 1565821810415
218, -23092.46, -33259.33, -76385.32, -71837.16, -69680.02, -187500.02, -24483.14, 13248.57, 0.000, 0.000, 0.000, 18:30:10.415, 1565821810415
219, -23098.11, -33266.66, -76395.60, -71864.05, -69710.75, -187500.02, -24486.27, 13245.04, 0.000, 0.000, 0.000, 18:30:10.422, 1565821810422
220, -23097.96, -33232.48, -76392.83, -71835.45, -69691.64, -187500.02, -24480.41, 13253.09, 0.000, 0.000, 0.000, 18:30:10.422, 1565821810422
221, -23097.38, -33231.54, -76385.84, -71815.02, -69658.47, -187500.02, -24479.16, 13254.76, 0.000, 0.000, 0.000, 18:30:10.430, 1565821810430
222, -23098.47, -33255.04, -76383.30, -71816.82, -69654.91, -187500.02, -24484.03, 13248.95, 0.000, 0.000, 0.000, 18:30:10.430, 1565821810430
223, -23102.52, -33271.26, -76397.08, -71835.02, -69670.36, -187500.02, -24487.43, 13246.51, 0.000, 0.000, 0.000, 18:30:10.438, 1565821810438
224, -23104.30, -33241.78, -76409.75, -71837.63, -69679.68, -187500.02, -24487.25, 13248.53, -0.042, 0.298, 0.938, 18:30:10.438, 1565821810438
225, -23100.55, -33234.36, -76387.33, -71824.65, -69673.00, -187500.02, -24486.16, 13249.11, 0.000, 0.000, 0.000, 18:30:10.446, 1565821810446
226, -23096.37, -33251.55, -76380.20, -71826.28, -69669.40, -187500.02, -24483.16, 13251.59, 0.000, 0.000, 0.000, 18:30:10.446, 1565821810446
227, -23092.37, -33266.41, -76383.71, -71824.11, -69672.98, -187500.02, -24480.43, 13252.71, 0.000, 0.000, 0.000, 18:30:10.453, 1565821810453
228, -23090.56, -33234.72, -76380.49, -71821.95, -69669.42, -187500.02, -24478.49, 13252.68, 0.000, 0.000, 0.000, 18:30:10.453, 1565821810453
229, -23093.55, -33224.62, -76378.77, -71822.39, -69664.73, -187500.02, -24478.11, 13253.60, 0.000, 0.000, 0.000, 18:30:10.460, 1565821810460
230, -23095.59, -33246.12, -76393.63, -71830.44, -69674.27, -187500.02, -24481.51, 13251.32, 0.000, 0.000, 0.000, 18:30:10.460, 1565821810460
231, -23102.40, -33276.09, -76401.59, -71844.80, -69685.09, -187500.02, -24487.30, 13245.84, 0.000, 0.000, 0.000, 18:30:10.467, 1565821810467
232, -23107.63, -33259.66, -76397.61, -71853.68, -69683.82, -187500.02, -24490.78, 13243.56, 0.000, 0.000, 0.000, 18:30:10.468, 1565821810468
233, -23101.04, -33236.77, -76395.00, -71851.38, -69684.29, -187500.02, -24492.53, 13240.93, 0.000, 0.000, 0.000, 18:30:10.476, 1565821810476
234, -23103.57, -33249.71, -76398.41, -71853.88, -69699.89, -187500.02, -24494.90, 13236.66, -0.042, 0.292, 0.938, 18:30:10.482, 1565821810482
235, -23102.07, -33272.29, -76399.49, -71843.24, -69683.64, -187500.02, -24491.79, 13239.21, 0.000, 0.000, 0.000, 18:30:10.482, 1565821810482
236, -23099.43, -33255.06, -76385.54, -71826.10, -69668.89, -187500.02, -24484.64, 13247.99, 0.000, 0.000, 0.000, 18:30:10.490, 1565821810490
237, -23101.53, -33233.33, -76387.17, -71833.56, -69679.30, -187500.02, -24488.06, 13244.10, 0.000, 0.000, 0.000, 18:30:10.490, 1565821810490
238, -23104.10, -33246.59, -76392.20, -71841.84, -69683.75, -187500.02, -24492.33, 13240.08, 0.000, 0.000, 0.000, 18:30:10.498, 1565821810498
239, -23100.39, -33271.62, -76393.45, -71834.86, -69686.57, -187500.02, -24490.47, 13240.66, 0.000, 0.000, 0.000, 18:30:10.498, 1565821810498
240, -23098.00, -33266.26, -76385.81, -71842.28, -69700.31, -187500.02, -24489.62, 13241.20, 0.000, 0.000, 0.000, 18:30:10.505, 1565821810505
241, -23098.43, -33236.35, -76385.84, -71838.70, -69681.85, -187500.02, -24485.44, 13247.39, 0.000, 0.000, 0.000, 18:30:10.506, 1565821810506
242, -23098.69, -33241.25, -76385.03, -71822.34, -69658.63, -187500.02, -24486.07, 13248.73, 0.000, 0.000, 0.000, 18:30:10.513, 1565821810513
243, -23099.19, -33266.48, -76389.59, -71833.09, -69671.16, -187500.02, -24487.45, 13246.96, 0.000, 0.000, 0.000, 18:30:10.513, 1565821810513
244, -23098.20, -33270.70, -76394.13, -71841.34, -69683.15, -187500.02, -24488.39, 13245.82, -0.038, 0.294, 0.936, 18:30:10.521, 1565821810521
245, -23095.56, -33235.37, -76392.25, -71834.57, -69668.51, -187500.02, -24484.14, 13248.97, 0.000, 0.000, 0.000, 18:30:10.521, 1565821810521
246, -23095.21, -33233.71, -76389.25, -71833.84, -69666.74, -187500.02, -24482.18, 13251.68, 0.000, 0.000, 0.000, 18:30:10.528, 1565821810528
247, -23095.41, -33256.02, -76394.64, -71832.16, -69675.02, -187500.02, -24482.40, 13251.01, 0.000, 0.000, 0.000, 18:30:10.528, 1565821810528
248, -23098.34, -33273.03, -76400.54, -71842.59, -69681.54, -187500.02, -24487.97, 13245.06, 0.000, 0.000, 0.000, 18:30:10.534, 1565821810534
249, -23101.89, -33245.56, -76393.97, -71844.59, -69671.91, -187500.02, -24492.62, 13239.14, 0.000, 0.000, 0.000, 18:30:10.544, 1565821810544
250, -23103.43, -33241.71, -76387.91, -71837.88, -69672.24, -187500.02, -24492.24, 13242.18, 0.000, 0.000, 0.000, 18:30:10.544, 1565821810544
251, -23105.69, -33261.83, -76387.69, -71822.43, -69670.56, -187500.02, -24493.04, 13243.86, 0.000, 0.000, 0.000, 18:30:10.550, 1565821810550
252, -23105.42, -33283.04, -76388.78, -71827.48, -69666.34, -187500.02, -24493.53, 13243.12, 0.000, 0.000, 0.000, 18:30:10.550, 1565821810550
253, -23105.94, -33256.18, -76404.05, -71843.53, -69675.46, -187500.02, -24489.55, 13246.43, 0.000, 0.000, 0.000, 18:30:10.557, 1565821810557
254, -23103.12, -33240.08, -76405.88, -71829.81, -69668.48, -187500.02, -24484.64, 13250.05, -0.040, 0.294, 0.934, 18:30:10.557, 1565821810557
255, -23102.74, -33256.09, -76385.20, -71824.06, -69665.29, -187500.02, -24485.96, 13248.08, 0.000, 0.000, 0.000, 18:30:10.566, 1565821810566
0, -23098.52, -33278.13, -76384.31, -71844.63, -69683.82, -187500.02, -24486.51, 13248.35, 0.000, 0.000, 0.000, 18:30:10.566, 1565821810566
1, -23097.15, -33256.73, -76391.47, -71848.88, -69685.07, -187500.02, -24484.48, 13250.09, 0.000, 0.000, 0.000, 18:30:10.573, 1565821810573
2, -23097.53, -33236.68, -76386.01, -71836.72, -69674.34, -187500.02, -24483.03, 13251.99, 0.000, 0.000, 0.000, 18:30:10.573, 1565821810573
3, -23096.10, -33248.84, -76385.92, -71834.39, -69679.37, -187500.02, -24484.05, 13251.50, 0.000, 0.000, 0.000, 18:30:10.581, 1565821810581
4, -23098.36, -33276.54, -76391.30, -71846.41, -69696.91, -187500.02, -24488.06, 13247.28, 0.000, 0.000, 0.000, 18:30:10.581, 1565821810581
5, -23095.32, -33263.33, -76389.56, -71834.81, -69681.13, -187500.02, -24485.73, 13247.48, 0.000, 0.000, 0.000, 18:30:10.587, 1565821810587
6, -23093.62, -33233.73, -76389.48, -71828.73, -69661.98, -187500.02, -24480.59, 13254.05, 0.000, 0.000, 0.000, 18:30:10.588, 1565821810588
7, -23097.06, -33244.42, -76393.30, -71837.92, -69672.24, -187500.02, -24481.89, 13254.34, -0.038, 0.294, 0.934, 18:30:10.595, 1565821810595
8, -23098.65, -33272.65, -76395.00, -71846.30, -69677.59, -187500.02, -24483.92, 13250.58, 0.000, 0.000, 0.000, 18:30:10.604, 1565821810604
9, -23092.41, -33265.65, -76394.17, -71844.49, -69675.84, -187500.02, -24479.83, 13253.49, 0.000, 0.000, 0.000, 18:30:10.604, 1565821810604
10, -23090.63, -33231.81, -76392.90, -71827.46, -69663.88, -187500.02, -24477.33, 13254.76, 0.000, 0.000, 0.000, 18:30:10.611, 1565821810611
11, -23095.81, -33239.90, -76398.28, -71823.46, -69665.63, -187500.02, -24481.13, 13251.99, 0.000, 0.000, 0.000, 18:30:10.611, 1565821810611
12, -23097.53, -33264.76, -76392.72, -71827.93, -69667.37, -187500.02, -24481.46, 13255.95, 0.000, 0.000, 0.000, 18:30:10.618, 1565821810618
13, -23098.11, -33274.19, -76398.08, -71845.70, -69690.75, -187500.02, -24482.69, 13254.32, 0.000, 0.000, 0.000, 18:30:10.618, 1565821810618
14, -23098.43, -33243.30, -76399.40, -71834.48, -69678.48, -187500.02, -24482.36, 13254.90, 0.000, 0.000, 0.000, 18:30:10.625, 1565821810625
15, -23099.92, -33243.12, -76393.52, -71824.13, -69653.58, -187500.02, -24484.46, 13254.11, 0.000, 0.000, 0.000, 18:30:10.625, 1565821810625
16, -23103.77, -33270.55, -76399.58, -71841.32, -69671.99, -187500.02, -24490.69, 13247.63, 0.000, 0.000, 0.000, 18:30:10.633, 1565821810633
17, -23103.19, -33286.02, -76409.03, -71851.27, -69690.86, -187500.02, -24490.04, 13248.26, -0.040, 0.292, 0.936, 18:30:10.633, 1565821810633
18, -23106.65, -33256.85, -76415.94, -71853.81, -69702.02, -187500.02, -24491.68, 13246.02, 0.000, 0.000, 0.000, 18:30:10.640, 1565821810640
19, -23104.71, -33246.59, -76394.82, -71834.08, -69674.52, -187500.02, -24488.93, 13249.38, 0.000, 0.000, 0.000, 18:30:10.640, 1565821810640
20, -23105.24, -33266.75, -76384.88, -71829.70, -69664.15, -187500.02, -24490.67, 13248.01, 0.000, 0.000, 0.000, 18:30:10.648, 1565821810648
21, -23106.09, -33290.51, -76396.54, -71841.68, -69676.84, -187500.02, -24493.62, 13243.90, 0.000, 0.000, 0.000, 18:30:10.648, 1565821810648
22, -23110.05, -33269.50, -76407.55, -71839.53, -69671.41, -187500.02, -24495.59, 13242.49, 0.000, 0.000, 0.000, 18:30:10.656, 1565821810656
23, -23114.16, -33257.74, -76397.37, -71833.68, -69658.20, -187500.02, -24499.17, 13238.38, 0.000, 0.000, 0.000, 18:30:10.663, 1565821810663
24, -23116.20, -33276.61, -76397.27, -71846.82, -69672.28, -187500.02, -24503.08, 13234.40, 0.000, 0.000, 0.000, 18:30:10.663, 1565821810663
25, -23112.35, -33299.27, -76400.90, -71846.35, -69674.84, -187500.02, -24498.05, 13240.46, 0.000, 0.000, 0.000, 18:30:10.670, 1565821810670
26, -23110.05, -33276.34, -76401.73, -71846.41, -69679.23, -187500.02, -24493.85, 13246.89, 0.000, 0.000, 0.000, 18:30:10.670, 1565821810670
27, -23112.24, -33257.43, -76393.43, -71838.82, -69672.27, -187500.02, -24496.86, 13243.16, -0.042, 0.286, 0.936, 18:30:10.677, 1565821810677
28, -23115.32, -33272.94, -76395.04, -71844.59, -69678.14, -187500.02, -24502.29, 13237.89, 0.000, 0.000, 0.000, 18:30:10.678, 1565821810678
29, -23113.51, -33298.89, -76397.39, -71862.82, -69700.27, -187500.02, -24505.74, 13233.42, 0.000, 0.000, 0.000, 18:30:10.686, 1565821810686
30, -23113.11, -33288.68, -76409.08, -71853.97, -69701.84, -187500.02, -24503.66, 13235.47, 0.000, 0.000, 0.000, 18:30:10.686, 1565821810686
31, -23115.19, -33261.88, -76406.89, -71852.97, -69695.91, -187500.02, -24502.67, 13236.26, 0.000, 0.000, 0.000, 18:30:10.695, 1565821810695
32, -23117.11, -33272.65, -76407.78, -71852.43, -69690.08, -187500.02, -24503.17, 13236.03, 0.000, 0.000, 0.000, 18:30:10.695, 1565821810695
33, -23116.80, -33297.77, -76407.96, -71854.95, -69685.38, -187500.02, -24503.05, 13238.42, 0.000, 0.000, 0.000, 18:30:10.701, 1565821810701
34, -23114.14, -33295.58, -76404.25, -71855.18, -69673.58, -187500.02, -24501.91, 13238.63, 0.000, 0.000, 0.000, 18:30:10.701, 1565821810701
35, -23111.57, -33260.78, -76413.73, -71840.31, -69664.82, -187500.02, -24499.34, 13241.02, 0.000, 0.000, 0.000, 18:30:10.708, 1565821810708
36, -23110.34, -33261.83, -76410.89, -71846.59, -69677.36, -187500.02, -24498.00, 13241.31, 0.000, 0.000, 0.000, 18:30:10.708, 1565821810708
37, -23109.76, -33285.37, -76407.23, -71843.35, -69686.16, -187500.02, -24499.77, 13237.28, -0.042, 0.288, 0.936, 18:30:10.715, 1565821810715
38, -23114.36, -33299.00, -76421.35, -71841.45, -69685.45, -187500.02, -24504.71, 13232.32, 0.000, 0.000, 0.000, 18:30:10.715, 1565821810715
39, -23122.50, -33274.48, -76413.86, -71843.96, -69682.45, -187500.02, -24506.85, 13230.78, 0.000, 0.000, 0.000, 18:30:10.722, 1565821810722
40, -23123.48, -33273.10, -76401.88, -71840.74, -69677.18, -187500.02, -24509.00, 13228.95, 0.000, 0.000, 0.000, 18:30:10.730, 1565821810730
41, -23124.04, -33295.20, -76404.23, -71845.66, -69681.59, -187500.02, -24512.46, 13228.32, 0.000, 0.000, 0.000, 18:30:10.730, 1565821810730
42, -23120.96, -33309.42, -76406.55, -71854.40, -69692.16, -187500.02, -24511.84, 13227.83, 0.000, 0.000, 0.000, 18:30:10.738, 1565821810738
43, -23118.65, -33275.62, -76409.70, -71863.96, -69699.42, -187500.02, -24508.66, 13230.73, 0.000, 0.000, 0.000, 18:30:10.738, 1565821810738
44, -23117.60, -33264.18, -76407.40, -71855.47, -69687.17, -187500.02, -24505.24, 13234.15, 0.000, 0.000, 0.000, 18:30:10.746, 1565821810746
45, -23115.70, -33280.34, -76411.23, -71844.12, -69680.00, -187500.02, -24505.76, 13233.69, 0.000, 0.000, 0.000, 18:30:10.746, 1565821810746
46, -23114.43, -33301.08, -76401.73, -71850.04, -69693.95, -187500.02, -24506.21, 13232.66, 0.000, 0.000, 0.000, 18:30:10.754, 1565821810754
47, -23119.66, -33281.30, -76410.42, -71866.55, -69704.85, -187500.02, -24508.82, 13229.19, -0.040, 0.286, 0.932, 18:30:10.754, 1565821810754
48, -23120.58, -33265.21, -76404.61, -71846.91, -69691.38, -187500.02, -24506.34, 13231.47, 0.000, 0.000, 0.000, 18:30:10.760, 1565821810760
49, -23119.84, -33279.78, -76402.22, -71840.12, -69688.78, -187500.02, -24508.51, 13228.10, 0.000, 0.000, 0.000, 18:30:10.761, 1565821810761
50, -23120.62, -33306.80, -76417.23, -71856.74, -69700.91, -187500.02, -24511.06, 13224.59, 0.000, 0.000, 0.000, 18:30:10.768, 1565821810768
51, -23119.21, -33288.36, -76423.77, -71863.34, -69707.31, -187500.02, -24507.88, 13230.04, 0.000, 0.000, 0.000, 18:30:10.768, 1565821810768
52, -23115.75, -33260.91, -76402.15, -71853.86, -69697.12, -187500.02, -24503.81, 13234.31, 0.000, 0.000, 0.000, 18:30:10.775, 1565821810775
53, -23118.39, -33270.77, -76399.31, -71845.63, -69684.11, -187500.02, -24506.45, 13231.63, 0.000, 0.000, 0.000, 18:30:10.776, 1565821810776
54, -23118.50, -33297.73, -76397.23, -71837.48, -69674.54, -187500.02, -24507.97, 13228.50, 0.000, 0.000, 0.000, 18:30:10.782, 1565821810782
55, -23114.36, -33288.05, -76397.52, -71839.09, -69680.73, -187500.02, -24502.47, 13234.62, 0.000, 0.000, 0.000, 18:30:10.790, 1565821810790
56, -23116.82, -33263.86, -76404.30, -71833.97, -69669.42, -187500.02, -24504.28, 13233.06, 0.000, 0.000, 0.000, 18:30:10.791, 1565821810791
57, -23116.17, -33269.77, -76406.62, -71861.51, -69703.17, -187500.02, -24505.80, 13230.27, -0.040, 0.290, 0.932, 18:30:10.798, 1565821810798
58, -23111.55, -33290.53, -76405.16, -71867.70, -69727.56, -187500.02, -24504.51, 13230.09, 0.000, 0.000, 0.000, 18:30:10.799, 1565821810799
59, -23109.89, -33290.84, -76409.44, -71853.13, -69711.11, -187500.02, -24502.54, 13232.59, 0.000, 0.000, 0.000, 18:30:10.805, 1565821810805
60, -23112.33, -33259.33, -76402.84, -71834.21, -69669.80, -187500.02, -24498.67, 13237.91, 0.000, 0.000, 0.000, 18:30:10.805, 1565821810805
61, -23117.27, -33265.36, -76408.23, -71835.40, -69660.75, -187500.02, -24504.11, 13232.21, 0.000, 0.000, 0.000, 18:30:10.813, 1565821810813
62, -23113.63, -33289.52, -76403.76, -71839.55, -69674.99, -187500.02, -24505.24, 13231.16, 0.000, 0.000, 0.000, 18:30:10.813, 1565821810813
63, -23113.76, -33299.80, -76402.55, -71842.66, -69677.56, -187500.02, -24504.42, 13232.88, 0.000, 0.000, 0.000, 18:30:10.821, 1565821810821
64, -23120.29, -33271.60, -76408.77, -71853.48, -69689.23, -187500.02, -24507.77, 13228.39, 0.000, 0.000, 0.000, 18:30:10.821, 1565821810821
65, -23122.90, -33269.77, -76405.73, -71851.22, -69685.92, -187500.02, -24510.63, 13226.04, 0.000, 0.000, 0.000, 18:30:10.829, 1565821810829
66, -23121.40, -33291.00, -76394.17, -71849.55, -69683.08, -187500.02, -24513.31, 13223.65, 0.000, 0.000, 0.000, 18:30:10.829, 1565821810829
67, -23115.06, -33303.34, -76395.60, -71831.77, -69674.50, -187500.02, -24508.51, 13229.91, -0.044, 0.286, 0.932, 18:30:10.835, 1565821810835
68, -23111.12, -33270.05, -76401.03, -71833.03, -69672.95, -187500.02, -24503.52, 13234.18, 0.000, 0.000, 0.000, 18:30:10.835, 1565821810835
69, -23111.50, -33261.05, -76407.49, -71843.91, -69680.87, -187500.02, -24504.17, 13233.08, 0.000, 0.000, 0.000, 18:30:10.842, 1565821810842
70, -23110.90, -33276.74, -76406.33, -71847.63, -69688.76, -187500.02, -24502.54, 13236.50, 0.000, 0.000, 0.000, 18:30:10.850, 1565821810850
71, -23108.30, -33297.37, -76404.79, -71837.41, -69676.73, -187500.02, -24499.34, 13239.56, 0.000, 0.000, 0.000, 18:30:10.850, 1565821810850
72, -23108.62, -33274.06, -76399.76, -71839.60, -69674.88, -187500.02, -24500.24, 13237.71, 0.000, 0.000, 0.000, 18:30:10.859, 1565821810859
73, -23110.50, -33257.74, -76396.29, -71842.80, -69681.09, -187500.02, -24501.56, 13236.90, 0.000, 0.000, 0.000, 18:30:10.859, 1565821810859
74, -23111.97, -33274.17, -76406.73, -71851.00, -69687.88, -187500.02, -24503.75, 13233.42, 0.000, 0.000, 0.000, 18:30:10.865, 1565821810865
75, -23110.29, -33300.72, -76407.36, -71843.06, -69687.30, -187500.02, -24502.96, 13234.42, 0.000, 0.000, 0.000, 18:30:10.865, 1565821810865
76, -23107.77, -33282.44, -76398.93, -71841.14, -69681.49, -187500.02, -24498.32, 13240.35, -0.042, 0.288, 0.932, 18:30:10.873, 1565821810873
77, -23108.30, -33256.02, -76394.17, -71843.06, -69680.27, -187500.02, -24497.76, 13238.96, 0.000, 0.000, 0.000, 18:30:10.873, 1565821810873
